SpectraSuite Data File
++++++++++++++++++++++++++++++++++++
Date: Wed Jun 01 00:00:0 VET 2014
User: Dark
Dark Spectrum Present: No
Reference Spectrum Present: No
Number of Sampled Component Spectra: 1
Spectrometers: HR4C5177
Integration Time (usec): 25000 (HR4C5177)
Spectra Averaged: 1 (HR4C5177)
Boxcar Smoothing: 0 (HR4C5177)
Correct for Electrical Dark: No (HR4C5177)
Strobe/Lamp Enabled: No (HR4C5177)
Correct for Detector Non-linearity: No (HR4C5177)
Correct for Stray Light: No (HR4C5177)
Number of Pixels in Processed Spectrum: 3648
>>>>>Begin Processed Spectral Data<<<<<
349.50	660.00
349.54	660.00
349.58	701.00
349.62	744.00
349.66	724.00
349.70	723.00
349.75	733.00
349.79	734.00
349.83	734.00
349.87	736.00
349.91	725.00
349.95	725.00
349.99	729.00
350.03	726.00
350.08	730.00
350.12	732.00
350.16	734.00
350.20	730.00
350.24	744.00
350.28	731.00
350.32	738.00
350.36	733.00
350.40	735.00
350.45	736.00
350.49	735.00
350.53	733.00
350.57	740.00
350.61	742.00
350.65	740.00
350.69	741.00
350.73	732.00
350.77	723.00
350.82	735.00
350.86	727.00
350.90	737.00
350.94	735.00
350.98	733.00
351.02	742.00
351.06	746.00
351.10	738.00
351.15	721.00
351.19	729.00
351.23	745.00
351.27	740.00
351.31	730.00
351.35	732.00
351.39	716.00
351.43	735.00
351.47	742.00
351.52	749.00
351.56	735.00
351.60	742.00
351.64	744.00
351.68	735.00
351.72	739.00
351.76	725.00
351.80	729.00
351.84	749.00
351.88	736.00
351.93	738.00
351.97	744.00
352.01	721.00
352.05	728.00
352.09	726.00
352.13	728.00
352.17	735.00
352.21	732.00
352.25	753.00
352.30	738.00
352.34	724.00
352.38	737.00
352.42	736.00
352.46	742.00
352.50	746.00
352.54	744.00
352.58	735.00
352.62	744.00
352.67	736.00
352.71	733.00
352.75	752.00
352.79	739.00
352.83	728.00
352.87	742.00
352.91	732.00
352.95	731.00
352.99	733.00
353.03	738.00
353.08	745.00
353.12	738.00
353.16	726.00
353.20	747.00
353.24	744.00
353.28	738.00
353.32	734.00
353.36	726.00
353.40	730.00
353.44	721.00
353.49	730.00
353.53	733.00
353.57	748.00
353.61	745.00
353.65	737.00
353.69	731.00
353.73	723.00
353.77	732.00
353.81	739.00
353.85	738.00
353.90	719.00
353.94	733.00
353.98	743.00
354.02	743.00
354.06	738.00
354.10	737.00
354.14	740.00
354.18	739.00
354.22	735.00
354.26	736.00
354.31	729.00
354.35	744.00
354.39	733.00
354.43	733.00
354.47	743.00
354.51	742.00
354.55	748.00
354.59	753.00
354.63	739.00
354.67	722.00
354.72	748.00
354.76	744.00
354.80	750.00
354.84	718.00
354.88	738.00
354.92	728.00
354.96	722.00
355.00	742.00
355.04	744.00
355.08	753.00
355.12	738.00
355.17	732.00
355.21	731.00
355.25	741.00
355.29	736.00
355.33	734.00
355.37	739.00
355.41	730.00
355.45	732.00
355.49	736.00
355.53	744.00
355.57	735.00
355.62	738.00
355.66	738.00
355.70	742.00
355.74	743.00
355.78	737.00
355.82	730.00
355.86	738.00
355.90	730.00
355.94	735.00
355.98	727.00
356.02	743.00
356.07	743.00
356.11	736.00
356.15	738.00
356.19	733.00
356.23	746.00
356.27	735.00
356.31	735.00
356.35	751.00
356.39	749.00
356.43	733.00
356.47	735.00
356.51	733.00
356.56	736.00
356.60	724.00
356.64	730.00
356.68	732.00
356.72	744.00
356.76	736.00
356.80	746.00
356.84	738.00
356.88	743.00
356.92	741.00
356.96	720.00
357.00	726.00
357.05	751.00
357.09	738.00
357.13	740.00
357.17	745.00
357.21	743.00
357.25	744.00
357.29	729.00
357.33	740.00
357.37	739.00
357.41	743.00
357.45	740.00
357.49	725.00
357.54	730.00
357.58	751.00
357.62	743.00
357.66	739.00
357.70	743.00
357.74	730.00
357.78	734.00
357.82	736.00
357.86	746.00
357.90	734.00
357.94	746.00
357.98	744.00
358.03	727.00
358.07	724.00
358.11	725.00
358.15	745.00
358.19	732.00
358.23	745.00
358.27	744.00
358.31	736.00
358.35	740.00
358.39	738.00
358.43	737.00
358.47	731.00
358.51	744.00
358.56	734.00
358.60	728.00
358.64	741.00
358.68	738.00
358.72	746.00
358.76	739.00
358.80	740.00
358.84	730.00
358.88	736.00
358.92	733.00
358.96	738.00
359.00	741.00
359.04	730.00
359.08	739.00
359.13	736.00
359.17	732.00
359.21	747.00
359.25	736.00
359.29	749.00
359.33	735.00
359.37	751.00
359.41	749.00
359.45	740.00
359.49	740.00
359.53	754.00
359.57	732.00
359.61	749.00
359.66	744.00
359.70	730.00
359.74	726.00
359.78	745.00
359.82	742.00
359.86	735.00
359.90	730.00
359.94	747.00
359.98	736.00
360.02	734.00
360.06	738.00
360.10	753.00
360.14	726.00
360.18	742.00
360.22	744.00
360.27	735.00
360.31	739.00
360.35	740.00
360.39	737.00
360.43	740.00
360.47	732.00
360.51	726.00
360.55	745.00
360.59	752.00
360.63	721.00
360.67	732.00
360.71	733.00
360.75	742.00
360.79	730.00
360.83	744.00
360.88	746.00
360.92	736.00
360.96	734.00
361.00	725.00
361.04	737.00
361.08	729.00
361.12	731.00
361.16	741.00
361.20	733.00
361.24	730.00
361.28	731.00
361.32	727.00
361.36	733.00
361.40	741.00
361.44	736.00
361.48	738.00
361.53	737.00
361.57	730.00
361.61	734.00
361.65	745.00
361.69	742.00
361.73	744.00
361.77	724.00
361.81	736.00
361.85	738.00
361.89	728.00
361.93	726.00
361.97	741.00
362.01	745.00
362.05	738.00
362.09	734.00
362.13	746.00
362.17	736.00
362.22	741.00
362.26	735.00
362.30	746.00
362.34	737.00
362.38	726.00
362.42	721.00
362.46	742.00
362.50	739.00
362.54	741.00
362.58	734.00
362.62	739.00
362.66	739.00
362.70	748.00
362.74	736.00
362.78	739.00
362.82	730.00
362.86	743.00
362.91	743.00
362.95	728.00
362.99	726.00
363.03	743.00
363.07	731.00
363.11	737.00
363.15	738.00
363.19	733.00
363.23	734.00
363.27	753.00
363.31	748.00
363.35	733.00
363.39	735.00
363.43	739.00
363.47	743.00
363.51	729.00
363.55	745.00
363.59	736.00
363.63	739.00
363.68	734.00
363.72	740.00
363.76	743.00
363.80	728.00
363.84	745.00
363.88	733.00
363.92	736.00
363.96	736.00
364.00	745.00
364.04	734.00
364.08	734.00
364.12	744.00
364.16	749.00
364.20	735.00
364.24	728.00
364.28	743.00
364.32	729.00
364.36	729.00
364.40	724.00
364.44	728.00
364.48	747.00
364.53	736.00
364.57	730.00
364.61	723.00
364.65	740.00
364.69	735.00
364.73	738.00
364.77	733.00
364.81	726.00
364.85	737.00
364.89	738.00
364.93	728.00
364.97	743.00
365.01	739.00
365.05	754.00
365.09	733.00
365.13	735.00
365.17	727.00
365.21	725.00
365.25	728.00
365.29	735.00
365.33	731.00
365.37	743.00
365.41	753.00
365.46	742.00
365.50	732.00
365.54	732.00
365.58	737.00
365.62	729.00
365.66	741.00
365.70	717.00
365.74	740.00
365.78	742.00
365.82	731.00
365.86	730.00
365.90	735.00
365.94	746.00
365.98	740.00
366.02	736.00
366.06	751.00
366.10	732.00
366.14	745.00
366.18	727.00
366.22	725.00
366.26	730.00
366.30	729.00
366.34	740.00
366.38	748.00
366.42	750.00
366.47	735.00
366.51	744.00
366.55	731.00
366.59	728.00
366.63	738.00
366.67	748.00
366.71	739.00
366.75	743.00
366.79	731.00
366.83	733.00
366.87	744.00
366.91	752.00
366.95	743.00
366.99	730.00
367.03	748.00
367.07	730.00
367.11	734.00
367.15	732.00
367.19	728.00
367.23	725.00
367.27	753.00
367.31	730.00
367.35	736.00
367.39	738.00
367.43	736.00
367.47	732.00
367.51	749.00
367.55	730.00
367.59	725.00
367.63	730.00
367.68	739.00
367.72	730.00
367.76	736.00
367.80	722.00
367.84	725.00
367.88	724.00
367.92	737.00
367.96	748.00
368.00	746.00
368.04	733.00
368.08	728.00
368.12	733.00
368.16	729.00
368.20	731.00
368.24	723.00
368.28	736.00
368.32	734.00
368.36	729.00
368.40	716.00
368.44	740.00
368.48	742.00
368.52	741.00
368.56	740.00
368.60	735.00
368.64	730.00
368.68	740.00
368.72	733.00
368.76	736.00
368.80	735.00
368.84	727.00
368.88	731.00
368.92	730.00
368.96	721.00
369.00	739.00
369.04	736.00
369.08	753.00
369.12	735.00
369.17	740.00
369.21	727.00
369.25	738.00
369.29	733.00
369.33	733.00
369.37	736.00
369.41	728.00
369.45	735.00
369.49	739.00
369.53	742.00
369.57	731.00
369.61	744.00
369.65	733.00
369.69	730.00
369.73	734.00
369.77	724.00
369.81	743.00
369.85	733.00
369.89	737.00
369.93	734.00
369.97	741.00
370.01	740.00
370.05	749.00
370.09	734.00
370.13	742.00
370.17	730.00
370.21	732.00
370.25	734.00
370.29	740.00
370.33	737.00
370.37	741.00
370.41	747.00
370.45	721.00
370.49	742.00
370.53	737.00
370.57	725.00
370.61	730.00
370.65	734.00
370.69	731.00
370.73	735.00
370.77	749.00
370.81	736.00
370.85	748.00
370.89	723.00
370.93	725.00
370.97	735.00
371.01	721.00
371.05	735.00
371.09	729.00
371.13	744.00
371.17	742.00
371.21	746.00
371.25	739.00
371.29	730.00
371.33	747.00
371.37	742.00
371.41	738.00
371.45	734.00
371.49	737.00
371.54	738.00
371.58	730.00
371.62	735.00
371.66	731.00
371.70	734.00
371.74	730.00
371.78	729.00
371.82	738.00
371.86	740.00
371.90	742.00
371.94	741.00
371.98	739.00
372.02	733.00
372.06	738.00
372.10	733.00
372.14	725.00
372.18	746.00
372.22	766.00
372.26	724.00
372.30	723.00
372.34	729.00
372.38	742.00
372.42	740.00
372.46	722.00
372.50	732.00
372.54	748.00
372.58	748.00
372.62	758.00
372.66	725.00
372.70	739.00
372.74	748.00
372.78	739.00
372.82	755.00
372.86	743.00
372.90	738.00
372.94	737.00
372.98	744.00
373.02	741.00
373.06	726.00
373.10	743.00
373.14	735.00
373.18	739.00
373.22	740.00
373.26	736.00
373.30	731.00
373.34	733.00
373.38	738.00
373.42	731.00
373.46	730.00
373.50	728.00
373.54	719.00
373.58	732.00
373.62	726.00
373.66	742.00
373.70	730.00
373.74	726.00
373.78	733.00
373.82	749.00
373.86	740.00
373.90	744.00
373.94	737.00
373.98	734.00
374.02	733.00
374.06	739.00
374.10	746.00
374.14	734.00
374.18	738.00
374.22	742.00
374.26	746.00
374.30	753.00
374.34	752.00
374.38	728.00
374.42	733.00
374.46	740.00
374.50	741.00
374.54	734.00
374.58	730.00
374.62	752.00
374.66	749.00
374.70	729.00
374.74	727.00
374.78	742.00
374.82	734.00
374.86	743.00
374.90	746.00
374.94	743.00
374.98	738.00
375.02	737.00
375.06	736.00
375.10	735.00
375.14	750.00
375.18	747.00
375.22	731.00
375.26	746.00
375.30	725.00
375.34	738.00
375.38	737.00
375.42	730.00
375.46	745.00
375.50	753.00
375.54	733.00
375.58	742.00
375.62	739.00
375.66	741.00
375.70	720.00
375.74	727.00
375.78	734.00
375.82	745.00
375.85	732.00
375.89	728.00
375.93	737.00
375.97	738.00
376.01	737.00
376.05	737.00
376.09	730.00
376.13	732.00
376.17	730.00
376.21	753.00
376.25	747.00
376.29	741.00
376.33	734.00
376.37	734.00
376.41	723.00
376.45	744.00
376.49	743.00
376.53	742.00
376.57	722.00
376.61	730.00
376.65	739.00
376.69	741.00
376.73	720.00
376.77	726.00
376.81	727.00
376.85	726.00
376.89	731.00
376.93	727.00
376.97	729.00
377.01	728.00
377.05	743.00
377.09	741.00
377.13	726.00
377.17	744.00
377.21	733.00
377.25	742.00
377.29	741.00
377.33	791.00
377.37	739.00
377.41	740.00
377.45	748.00
377.49	741.00
377.53	735.00
377.57	738.00
377.61	743.00
377.65	745.00
377.69	734.00
377.73	726.00
377.77	736.00
377.81	723.00
377.85	723.00
377.89	733.00
377.93	756.00
377.97	735.00
378.01	740.00
378.05	745.00
378.09	735.00
378.13	748.00
378.16	745.00
378.20	741.00
378.24	725.00
378.28	737.00
378.32	736.00
378.36	739.00
378.40	741.00
378.44	738.00
378.48	734.00
378.52	745.00
378.56	741.00
378.60	731.00
378.64	738.00
378.68	745.00
378.72	736.00
378.76	724.00
378.80	739.00
378.84	744.00
378.88	744.00
378.92	752.00
378.96	741.00
379.00	751.00
379.04	733.00
379.08	735.00
379.12	739.00
379.16	733.00
379.20	728.00
379.24	738.00
379.28	745.00
379.32	738.00
379.36	736.00
379.40	727.00
379.44	743.00
379.48	727.00
379.52	727.00
379.56	740.00
379.60	733.00
379.63	737.00
379.67	738.00
379.71	743.00
379.75	751.00
379.79	725.00
379.83	729.00
379.87	737.00
379.91	743.00
379.95	749.00
379.99	743.00
380.03	734.00
380.07	721.00
380.11	735.00
380.15	724.00
380.19	738.00
380.23	736.00
380.27	741.00
380.31	741.00
380.35	729.00
380.39	736.00
380.43	754.00
380.47	754.00
380.51	714.00
380.55	727.00
380.59	741.00
380.63	733.00
380.67	740.00
380.71	737.00
380.75	732.00
380.79	725.00
380.82	734.00
380.86	734.00
380.90	743.00
380.94	748.00
380.98	740.00
381.02	746.00
381.06	736.00
381.10	737.00
381.14	737.00
381.18	738.00
381.22	733.00
381.26	720.00
381.30	732.00
381.34	732.00
381.38	738.00
381.42	743.00
381.46	730.00
381.50	750.00
381.54	721.00
381.58	737.00
381.62	742.00
381.66	747.00
381.70	738.00
381.74	724.00
381.78	719.00
381.81	733.00
381.85	721.00
381.89	722.00
381.93	742.00
381.97	750.00
382.01	739.00
382.05	741.00
382.09	728.00
382.13	740.00
382.17	723.00
382.21	728.00
382.25	734.00
382.29	722.00
382.33	733.00
382.37	728.00
382.41	741.00
382.45	735.00
382.49	747.00
382.53	736.00
382.57	737.00
382.61	720.00
382.65	738.00
382.68	731.00
382.72	728.00
382.76	745.00
382.80	736.00
382.84	730.00
382.88	717.00
382.92	728.00
382.96	750.00
383.00	751.00
383.04	738.00
383.08	741.00
383.12	731.00
383.16	735.00
383.20	759.00
383.24	752.00
383.28	739.00
383.32	735.00
383.36	738.00
383.40	735.00
383.44	742.00
383.48	746.00
383.51	738.00
383.55	729.00
383.59	730.00
383.63	726.00
383.67	737.00
383.71	739.00
383.75	736.00
383.79	744.00
383.83	740.00
383.87	737.00
383.91	737.00
383.95	736.00
383.99	722.00
384.03	731.00
384.07	739.00
384.11	741.00
384.15	725.00
384.19	735.00
384.23	729.00
384.26	740.00
384.30	734.00
384.34	734.00
384.38	739.00
384.42	734.00
384.46	724.00
384.50	731.00
384.54	738.00
384.58	743.00
384.62	757.00
384.66	731.00
384.70	743.00
384.74	742.00
384.78	736.00
384.82	736.00
384.86	744.00
384.90	717.00
384.93	741.00
384.97	741.00
385.01	738.00
385.05	724.00
385.09	741.00
385.13	743.00
385.17	746.00
385.21	730.00
385.25	731.00
385.29	743.00
385.33	738.00
385.37	743.00
385.41	750.00
385.45	746.00
385.49	744.00
385.53	743.00
385.57	746.00
385.60	726.00
385.64	717.00
385.68	724.00
385.72	731.00
385.76	724.00
385.80	729.00
385.84	730.00
385.88	734.00
385.92	735.00
385.96	742.00
386.00	736.00
386.04	740.00
386.08	719.00
386.12	734.00
386.16	730.00
386.19	731.00
386.23	725.00
386.27	730.00
386.31	731.00
386.35	731.00
386.39	735.00
386.43	744.00
386.47	732.00
386.51	739.00
386.55	719.00
386.59	739.00
386.63	728.00
386.67	747.00
386.71	737.00
386.75	734.00
386.78	723.00
386.82	746.00
386.86	744.00
386.90	749.00
386.94	741.00
386.98	731.00
387.02	726.00
387.06	736.00
387.10	724.00
387.14	734.00
387.18	736.00
387.22	737.00
387.26	738.00
387.30	741.00
387.33	730.00
387.37	735.00
387.41	730.00
387.45	731.00
387.49	736.00
387.53	729.00
387.57	741.00
387.61	729.00
387.65	744.00
387.69	736.00
387.73	754.00
387.77	741.00
387.81	738.00
387.85	730.00
387.88	735.00
387.92	739.00
387.96	746.00
388.00	736.00
388.04	728.00
388.08	736.00
388.12	746.00
388.16	739.00
388.20	728.00
388.24	741.00
388.28	718.00
388.32	712.00
388.36	741.00
388.39	730.00
388.43	742.00
388.47	734.00
388.51	734.00
388.55	739.00
388.59	732.00
388.63	729.00
388.67	734.00
388.71	732.00
388.75	736.00
388.79	735.00
388.83	732.00
388.87	726.00
388.90	726.00
388.94	749.00
388.98	724.00
389.02	740.00
389.06	739.00
389.10	748.00
389.14	730.00
389.18	740.00
389.22	726.00
389.26	731.00
389.30	744.00
389.34	734.00
389.37	737.00
389.41	732.00
389.45	724.00
389.49	737.00
389.53	732.00
389.57	727.00
389.61	738.00
389.65	748.00
389.69	739.00
389.73	742.00
389.77	744.00
389.81	743.00
389.84	743.00
389.88	734.00
389.92	724.00
389.96	744.00
390.00	720.00
390.04	740.00
390.08	738.00
390.12	741.00
390.16	730.00
390.20	739.00
390.24	743.00
390.28	741.00
390.31	740.00
390.35	741.00
390.39	742.00
390.43	734.00
390.47	734.00
390.51	724.00
390.55	738.00
390.59	741.00
390.63	756.00
390.67	734.00
390.71	729.00
390.74	727.00
390.78	726.00
390.82	730.00
390.86	736.00
390.90	740.00
390.94	727.00
390.98	729.00
391.02	732.00
391.06	732.00
391.10	729.00
391.14	735.00
391.17	738.00
391.21	745.00
391.25	738.00
391.29	738.00
391.33	727.00
391.37	739.00
391.41	730.00
391.45	737.00
391.49	728.00
391.53	755.00
391.57	732.00
391.60	727.00
391.64	742.00
391.68	734.00
391.72	746.00
391.76	733.00
391.80	738.00
391.84	731.00
391.88	745.00
391.92	760.00
391.96	734.00
391.99	734.00
392.03	749.00
392.07	740.00
392.11	738.00
392.15	741.00
392.19	744.00
392.23	732.00
392.27	733.00
392.31	742.00
392.35	735.00
392.38	749.00
392.42	733.00
392.46	740.00
392.50	753.00
392.54	748.00
392.58	725.00
392.62	726.00
392.66	734.00
392.70	738.00
392.74	726.00
392.77	737.00
392.81	743.00
392.85	741.00
392.89	732.00
392.93	732.00
392.97	749.00
393.01	737.00
393.05	736.00
393.09	735.00
393.13	732.00
393.16	740.00
393.20	761.00
393.24	744.00
393.28	733.00
393.32	737.00
393.36	740.00
393.40	733.00
393.44	737.00
393.48	726.00
393.52	734.00
393.55	749.00
393.59	734.00
393.63	743.00
393.67	755.00
393.71	726.00
393.75	748.00
393.79	745.00
393.83	734.00
393.87	722.00
393.90	740.00
393.94	735.00
393.98	738.00
394.02	747.00
394.06	745.00
394.10	743.00
394.14	739.00
394.18	738.00
394.22	741.00
394.26	739.00
394.29	760.00
394.33	740.00
394.37	736.00
394.41	725.00
394.45	737.00
394.49	733.00
394.53	736.00
394.57	720.00
394.61	734.00
394.64	736.00
394.68	735.00
394.72	736.00
394.76	731.00
394.80	743.00
394.84	733.00
394.88	740.00
394.92	739.00
394.96	740.00
394.99	740.00
395.03	733.00
395.07	738.00
395.11	744.00
395.15	758.00
395.19	745.00
395.23	734.00
395.27	747.00
395.30	740.00
395.34	738.00
395.38	732.00
395.42	722.00
395.46	737.00
395.50	739.00
395.54	738.00
395.58	731.00
395.62	732.00
395.65	730.00
395.69	744.00
395.73	734.00
395.77	739.00
395.81	741.00
395.85	738.00
395.89	724.00
395.93	743.00
395.97	728.00
396.00	739.00
396.04	734.00
396.08	742.00
396.12	742.00
396.16	737.00
396.20	733.00
396.24	740.00
396.28	735.00
396.31	731.00
396.35	736.00
396.39	721.00
396.43	733.00
396.47	742.00
396.51	720.00
396.55	738.00
396.59	739.00
396.62	724.00
396.66	724.00
396.70	731.00
396.74	733.00
396.78	734.00
396.82	747.00
396.86	738.00
396.90	741.00
396.93	748.00
396.97	734.00
397.01	729.00
397.05	749.00
397.09	738.00
397.13	731.00
397.17	742.00
397.21	738.00
397.24	731.00
397.28	747.00
397.32	748.00
397.36	730.00
397.40	742.00
397.44	741.00
397.48	736.00
397.52	750.00
397.55	733.00
397.59	734.00
397.63	749.00
397.67	744.00
397.71	754.00
397.75	747.00
397.79	733.00
397.83	738.00
397.86	737.00
397.90	731.00
397.94	742.00
397.98	746.00
398.02	732.00
398.06	726.00
398.10	745.00
398.14	728.00
398.17	731.00
398.21	718.00
398.25	750.00
398.29	738.00
398.33	745.00
398.37	731.00
398.41	737.00
398.44	731.00
398.48	737.00
398.52	743.00
398.56	732.00
398.60	731.00
398.64	731.00
398.68	732.00
398.72	732.00
398.75	734.00
398.79	734.00
398.83	741.00
398.87	742.00
398.91	729.00
398.95	734.00
398.99	743.00
399.02	738.00
399.06	747.00
399.10	728.00
399.14	732.00
399.18	740.00
399.22	737.00
399.26	743.00
399.30	733.00
399.33	727.00
399.37	739.00
399.41	731.00
399.45	749.00
399.49	741.00
399.53	745.00
399.57	726.00
399.60	742.00
399.64	726.00
399.68	729.00
399.72	728.00
399.76	745.00
399.80	731.00
399.84	734.00
399.87	723.00
399.91	741.00
399.95	749.00
399.99	750.00
400.03	736.00
400.07	732.00
400.11	735.00
400.14	730.00
400.18	735.00
400.22	756.00
400.26	749.00
400.30	729.00
400.34	730.00
400.38	741.00
400.41	737.00
400.45	738.00
400.49	737.00
400.53	755.00
400.57	744.00
400.61	734.00
400.65	750.00
400.68	735.00
400.72	726.00
400.76	741.00
400.80	750.00
400.84	742.00
400.88	741.00
400.92	725.00
400.95	732.00
400.99	738.00
401.03	742.00
401.07	733.00
401.11	738.00
401.15	740.00
401.19	732.00
401.22	739.00
401.26	742.00
401.30	753.00
401.34	755.00
401.38	747.00
401.42	733.00
401.46	735.00
401.49	732.00
401.53	734.00
401.57	742.00
401.61	737.00
401.65	730.00
401.69	737.00
401.72	734.00
401.76	749.00
401.80	740.00
401.84	754.00
401.88	757.00
401.92	741.00
401.96	747.00
401.99	737.00
402.03	734.00
402.07	734.00
402.11	743.00
402.15	738.00
402.19	740.00
402.22	729.00
402.26	733.00
402.30	741.00
402.34	737.00
402.38	740.00
402.42	740.00
402.46	753.00
402.49	745.00
402.53	731.00
402.57	735.00
402.61	747.00
402.65	727.00
402.69	713.00
402.72	734.00
402.76	739.00
402.80	737.00
402.84	742.00
402.88	744.00
402.92	748.00
402.96	731.00
402.99	748.00
403.03	739.00
403.07	737.00
403.11	736.00
403.15	739.00
403.19	746.00
403.22	741.00
403.26	730.00
403.30	736.00
403.34	743.00
403.38	744.00
403.42	746.00
403.45	732.00
403.49	728.00
403.53	739.00
403.57	741.00
403.61	739.00
403.65	745.00
403.69	750.00
403.72	736.00
403.76	746.00
403.80	743.00
403.84	749.00
403.88	742.00
403.92	737.00
403.95	740.00
403.99	729.00
404.03	730.00
404.07	730.00
404.11	741.00
404.15	737.00
404.18	738.00
404.22	751.00
404.26	750.00
404.30	743.00
404.34	740.00
404.38	733.00
404.41	735.00
404.45	729.00
404.49	742.00
404.53	728.00
404.57	728.00
404.61	728.00
404.64	735.00
404.68	746.00
404.72	750.00
404.76	736.00
404.80	741.00
404.84	746.00
404.87	739.00
404.91	732.00
404.95	731.00
404.99	738.00
405.03	732.00
405.07	734.00
405.10	742.00
405.14	752.00
405.18	734.00
405.22	730.00
405.26	741.00
405.30	734.00
405.33	737.00
405.37	737.00
405.41	734.00
405.45	731.00
405.49	742.00
405.53	746.00
405.56	740.00
405.60	738.00
405.64	730.00
405.68	727.00
405.72	734.00
405.75	752.00
405.79	744.00
405.83	734.00
405.87	744.00
405.91	758.00
405.95	742.00
405.98	742.00
406.02	742.00
406.06	738.00
406.10	733.00
406.14	740.00
406.18	732.00
406.21	742.00
406.25	731.00
406.29	745.00
406.33	734.00
406.37	736.00
406.41	731.00
406.44	732.00
406.48	745.00
406.52	724.00
406.56	736.00
406.60	736.00
406.63	742.00
406.67	734.00
406.71	727.00
406.75	741.00
406.79	743.00
406.83	748.00
406.86	733.00
406.90	736.00
406.94	739.00
406.98	740.00
407.02	757.00
407.05	739.00
407.09	753.00
407.13	726.00
407.17	745.00
407.21	743.00
407.25	731.00
407.28	734.00
407.32	739.00
407.36	743.00
407.40	738.00
407.44	730.00
407.47	737.00
407.51	742.00
407.55	731.00
407.59	724.00
407.63	730.00
407.67	721.00
407.70	741.00
407.74	745.00
407.78	736.00
407.82	734.00
407.86	757.00
407.89	738.00
407.93	738.00
407.97	736.00
408.01	733.00
408.05	730.00
408.09	735.00
408.12	740.00
408.16	742.00
408.20	746.00
408.24	731.00
408.28	728.00
408.31	752.00
408.35	738.00
408.39	728.00
408.43	740.00
408.47	742.00
408.50	744.00
408.54	734.00
408.58	735.00
408.62	737.00
408.66	732.00
408.70	745.00
408.73	752.00
408.77	736.00
408.81	747.00
408.85	751.00
408.89	739.00
408.92	730.00
408.96	731.00
409.00	744.00
409.04	739.00
409.08	737.00
409.11	737.00
409.15	747.00
409.19	750.00
409.23	751.00
409.27	741.00
409.30	735.00
409.34	740.00
409.38	728.00
409.42	747.00
409.46	740.00
409.49	737.00
409.53	743.00
409.57	734.00
409.61	744.00
409.65	743.00
409.69	751.00
409.72	733.00
409.76	732.00
409.80	740.00
409.84	748.00
409.88	740.00
409.91	734.00
409.95	743.00
409.99	743.00
410.03	741.00
410.07	741.00
410.10	743.00
410.14	738.00
410.18	746.00
410.22	725.00
410.26	730.00
410.29	731.00
410.33	746.00
410.37	736.00
410.41	736.00
410.45	739.00
410.48	734.00
410.52	741.00
410.56	737.00
410.60	739.00
410.64	732.00
410.67	741.00
410.71	736.00
410.75	758.00
410.79	735.00
410.83	739.00
410.86	748.00
410.90	736.00
410.94	736.00
410.98	749.00
411.02	738.00
411.05	746.00
411.09	737.00
411.13	739.00
411.17	739.00
411.21	742.00
411.24	749.00
411.28	744.00
411.32	728.00
411.36	725.00
411.39	738.00
411.43	744.00
411.47	742.00
411.51	745.00
411.55	739.00
411.58	733.00
411.62	735.00
411.66	751.00
411.70	746.00
411.74	746.00
411.77	740.00
411.81	730.00
411.85	738.00
411.89	756.00
411.93	740.00
411.96	740.00
412.00	724.00
412.04	741.00
412.08	737.00
412.12	740.00
412.15	725.00
412.19	739.00
412.23	746.00
412.27	745.00
412.30	731.00
412.34	743.00
412.38	748.00
412.42	746.00
412.46	739.00
412.49	742.00
412.53	744.00
412.57	735.00
412.61	741.00
412.65	735.00
412.68	741.00
412.72	749.00
412.76	743.00
412.80	733.00
412.84	736.00
412.87	737.00
412.91	738.00
412.95	760.00
412.99	740.00
413.02	726.00
413.06	735.00
413.10	741.00
413.14	752.00
413.18	741.00
413.21	742.00
413.25	741.00
413.29	747.00
413.33	747.00
413.37	742.00
413.40	735.00
413.44	740.00
413.48	721.00
413.52	731.00
413.55	750.00
413.59	729.00
413.63	747.00
413.67	744.00
413.71	751.00
413.74	745.00
413.78	751.00
413.82	733.00
413.86	723.00
413.89	747.00
413.93	728.00
413.97	734.00
414.01	751.00
414.05	742.00
414.08	736.00
414.12	734.00
414.16	737.00
414.20	742.00
414.23	737.00
414.27	746.00
414.31	740.00
414.35	749.00
414.39	744.00
414.42	730.00
414.46	732.00
414.50	749.00
414.54	747.00
414.57	750.00
414.61	737.00
414.65	746.00
414.69	730.00
414.73	737.00
414.76	738.00
414.80	737.00
414.84	741.00
414.88	740.00
414.91	739.00
414.95	740.00
414.99	735.00
415.03	735.00
415.07	730.00
415.10	741.00
415.14	747.00
415.18	747.00
415.22	731.00
415.25	736.00
415.29	741.00
415.33	734.00
415.37	739.00
415.40	727.00
415.44	734.00
415.48	735.00
415.52	739.00
415.56	732.00
415.59	740.00
415.63	748.00
415.67	740.00
415.71	741.00
415.74	741.00
415.78	738.00
415.82	744.00
415.86	741.00
415.90	750.00
415.93	744.00
415.97	735.00
416.01	744.00
416.05	750.00
416.08	727.00
416.12	735.00
416.16	747.00
416.20	753.00
416.23	732.00
416.27	744.00
416.31	740.00
416.35	725.00
416.38	748.00
416.42	744.00
416.46	743.00
416.50	742.00
416.54	739.00
416.57	752.00
416.61	738.00
416.65	734.00
416.69	732.00
416.72	733.00
416.76	738.00
416.80	738.00
416.84	744.00
416.87	745.00
416.91	733.00
416.95	741.00
416.99	743.00
417.02	740.00
417.06	737.00
417.10	742.00
417.14	737.00
417.18	740.00
417.21	744.00
417.25	741.00
417.29	742.00
417.33	760.00
417.36	741.00
417.40	740.00
417.44	743.00
417.48	735.00
417.51	745.00
417.55	745.00
417.59	748.00
417.63	739.00
417.66	742.00
417.70	736.00
417.74	742.00
417.78	741.00
417.81	741.00
417.85	740.00
417.89	740.00
417.93	740.00
417.96	748.00
418.00	737.00
418.04	754.00
418.08	744.00
418.11	753.00
418.15	732.00
418.19	740.00
418.23	742.00
418.26	736.00
418.30	738.00
418.34	750.00
418.38	737.00
418.41	739.00
418.45	743.00
418.49	740.00
418.53	758.00
418.57	744.00
418.60	747.00
418.64	731.00
418.68	744.00
418.72	732.00
418.75	734.00
418.79	755.00
418.83	746.00
418.87	738.00
418.90	737.00
418.94	733.00
418.98	733.00
419.02	728.00
419.05	740.00
419.09	740.00
419.13	740.00
419.17	751.00
419.20	735.00
419.24	751.00
419.28	755.00
419.32	734.00
419.35	747.00
419.39	728.00
419.43	746.00
419.47	740.00
419.50	745.00
419.54	744.00
419.58	749.00
419.62	744.00
419.65	741.00
419.69	751.00
419.73	751.00
419.76	736.00
419.80	744.00
419.84	759.00
419.88	729.00
419.91	732.00
419.95	740.00
419.99	737.00
420.03	736.00
420.06	740.00
420.10	749.00
420.14	749.00
420.18	738.00
420.21	736.00
420.25	745.00
420.29	751.00
420.33	754.00
420.36	749.00
420.40	748.00
420.44	737.00
420.48	743.00
420.51	737.00
420.55	738.00
420.59	749.00
420.63	742.00
420.66	742.00
420.70	743.00
420.74	755.00
420.78	757.00
420.81	760.00
420.85	738.00
420.89	750.00
420.92	730.00
420.96	749.00
421.00	732.00
421.04	735.00
421.07	749.00
421.11	744.00
421.15	743.00
421.19	743.00
421.22	743.00
421.26	746.00
421.30	749.00
421.34	742.00
421.37	742.00
421.41	735.00
421.45	745.00
421.49	746.00
421.52	735.00
421.56	741.00
421.60	736.00
421.63	747.00
421.67	744.00
421.71	737.00
421.75	732.00
421.78	748.00
421.82	741.00
421.86	741.00
421.90	738.00
421.93	748.00
421.97	736.00
422.01	739.00
422.05	742.00
422.08	744.00
422.12	743.00
422.16	748.00
422.19	738.00
422.23	739.00
422.27	740.00
422.31	737.00
422.34	749.00
422.38	750.00
422.42	744.00
422.46	756.00
422.49	741.00
422.53	739.00
422.57	746.00
422.61	739.00
422.64	744.00
422.68	754.00
422.72	734.00
422.75	743.00
422.79	738.00
422.83	743.00
422.87	750.00
422.90	736.00
422.94	750.00
422.98	744.00
423.02	737.00
423.05	750.00
423.09	739.00
423.13	737.00
423.16	736.00
423.20	739.00
423.24	738.00
423.28	748.00
423.31	730.00
423.35	739.00
423.39	745.00
423.42	747.00
423.46	750.00
423.50	739.00
423.54	749.00
423.57	745.00
423.61	744.00
423.65	750.00
423.69	744.00
423.72	741.00
423.76	736.00
423.80	745.00
423.83	738.00
423.87	748.00
423.91	762.00
423.95	756.00
423.98	744.00
424.02	743.00
424.06	742.00
424.09	749.00
424.13	738.00
424.17	742.00
424.21	749.00
424.24	741.00
424.28	759.00
424.32	745.00
424.36	735.00
424.39	738.00
424.43	741.00
424.47	752.00
424.50	737.00
424.54	744.00
424.58	753.00
424.62	730.00
424.65	737.00
424.69	728.00
424.73	744.00
424.76	747.00
424.80	741.00
424.84	748.00
424.88	739.00
424.91	736.00
424.95	751.00
424.99	747.00
425.02	722.00
425.06	745.00
425.10	748.00
425.14	736.00
425.17	739.00
425.21	744.00
425.25	737.00
425.28	739.00
425.32	757.00
425.36	735.00
425.40	750.00
425.43	747.00
425.47	738.00
425.51	746.00
425.54	738.00
425.58	740.00
425.62	735.00
425.66	742.00
425.69	738.00
425.73	733.00
425.77	740.00
425.80	747.00
425.84	748.00
425.88	743.00
425.91	737.00
425.95	754.00
425.99	744.00
426.03	721.00
426.06	729.00
426.10	745.00
426.14	745.00
426.17	731.00
426.21	746.00
426.25	750.00
426.29	742.00
426.32	745.00
426.36	763.00
426.40	746.00
426.43	734.00
426.47	745.00
426.51	738.00
426.55	742.00
426.58	746.00
426.62	747.00
426.66	739.00
426.69	748.00
426.73	737.00
426.77	749.00
426.80	742.00
426.84	742.00
426.88	754.00
426.92	745.00
426.95	738.00
426.99	742.00
427.03	743.00
427.06	752.00
427.10	738.00
427.14	745.00
427.17	740.00
427.21	746.00
427.25	726.00
427.29	730.00
427.32	746.00
427.36	737.00
427.40	732.00
427.43	739.00
427.47	743.00
427.51	740.00
427.54	735.00
427.58	739.00
427.62	755.00
427.66	756.00
427.69	741.00
427.73	742.00
427.77	744.00
427.80	750.00
427.84	734.00
427.88	744.00
427.91	732.00
427.95	756.00
427.99	746.00
428.03	740.00
428.06	738.00
428.10	739.00
428.14	739.00
428.17	747.00
428.21	743.00
428.25	740.00
428.28	737.00
428.32	737.00
428.36	749.00
428.39	739.00
428.43	746.00
428.47	740.00
428.51	748.00
428.54	737.00
428.58	746.00
428.62	745.00
428.65	743.00
428.69	732.00
428.73	743.00
428.76	752.00
428.80	732.00
428.84	735.00
428.87	740.00
428.91	746.00
428.95	741.00
428.99	748.00
429.02	746.00
429.06	744.00
429.10	748.00
429.13	744.00
429.17	742.00
429.21	737.00
429.24	743.00
429.28	741.00
429.32	747.00
429.35	735.00
429.39	732.00
429.43	754.00
429.47	758.00
429.50	741.00
429.54	732.00
429.58	736.00
429.61	742.00
429.65	738.00
429.69	738.00
429.72	728.00
429.76	744.00
429.80	744.00
429.83	731.00
429.87	741.00
429.91	753.00
429.94	739.00
429.98	746.00
430.02	746.00
430.05	753.00
430.09	753.00
430.13	753.00
430.17	740.00
430.20	738.00
430.24	742.00
430.28	737.00
430.31	740.00
430.35	739.00
430.39	737.00
430.42	734.00
430.46	745.00
430.50	753.00
430.53	745.00
430.57	743.00
430.61	731.00
430.64	741.00
430.68	741.00
430.72	747.00
430.75	739.00
430.79	726.00
430.83	728.00
430.86	740.00
430.90	752.00
430.94	740.00
430.98	738.00
431.01	745.00
431.05	739.00
431.09	738.00
431.12	737.00
431.16	745.00
431.20	736.00
431.23	745.00
431.27	744.00
431.31	735.00
431.34	730.00
431.38	746.00
431.42	753.00
431.45	749.00
431.49	744.00
431.53	742.00
431.56	744.00
431.60	731.00
431.64	752.00
431.67	750.00
431.71	742.00
431.75	726.00
431.78	749.00
431.82	737.00
431.86	742.00
431.89	742.00
431.93	748.00
431.97	746.00
432.00	750.00
432.04	741.00
432.08	733.00
432.11	740.00
432.15	742.00
432.19	744.00
432.22	743.00
432.26	740.00
432.30	738.00
432.33	739.00
432.37	733.00
432.41	740.00
432.44	737.00
432.48	747.00
432.52	749.00
432.55	728.00
432.59	744.00
432.63	755.00
432.66	749.00
432.70	738.00
432.74	744.00
432.77	736.00
432.81	730.00
432.85	736.00
432.88	731.00
432.92	748.00
432.96	743.00
432.99	756.00
433.03	741.00
433.07	744.00
433.10	749.00
433.14	731.00
433.18	724.00
433.21	735.00
433.25	754.00
433.29	737.00
433.32	750.00
433.36	736.00
433.40	743.00
433.43	738.00
433.47	749.00
433.51	732.00
433.54	745.00
433.58	741.00
433.62	749.00
433.65	754.00
433.69	749.00
433.73	742.00
433.76	749.00
433.80	737.00
433.84	740.00
433.87	732.00
433.91	739.00
433.95	724.00
433.98	737.00
434.02	729.00
434.06	736.00
434.09	732.00
434.13	726.00
434.17	743.00
434.20	725.00
434.24	727.00
434.28	741.00
434.31	745.00
434.35	738.00
434.39	741.00
434.42	739.00
434.46	738.00
434.50	730.00
434.53	741.00
434.57	753.00
434.61	742.00
434.64	745.00
434.68	740.00
434.71	741.00
434.75	742.00
434.79	731.00
434.82	737.00
434.86	735.00
434.90	740.00
434.93	733.00
434.97	748.00
435.01	734.00
435.04	734.00
435.08	727.00
435.12	729.00
435.15	742.00
435.19	734.00
435.23	732.00
435.26	730.00
435.30	735.00
435.34	746.00
435.37	736.00
435.41	739.00
435.45	737.00
435.48	743.00
435.52	731.00
435.55	745.00
435.59	749.00
435.63	745.00
435.66	726.00
435.70	744.00
435.74	732.00
435.77	733.00
435.81	765.00
435.85	750.00
435.88	742.00
435.92	726.00
435.96	747.00
435.99	747.00
436.03	758.00
436.07	745.00
436.10	742.00
436.14	743.00
436.18	731.00
436.21	741.00
436.25	731.00
436.28	744.00
436.32	736.00
436.36	741.00
436.39	733.00
436.43	734.00
436.47	742.00
436.50	740.00
436.54	742.00
436.58	746.00
436.61	731.00
436.65	733.00
436.69	743.00
436.72	734.00
436.76	740.00
436.79	746.00
436.83	742.00
436.87	738.00
436.90	738.00
436.94	738.00
436.98	748.00
437.01	742.00
437.05	729.00
437.09	752.00
437.12	748.00
437.16	739.00
437.20	738.00
437.23	748.00
437.27	749.00
437.30	739.00
437.34	735.00
437.38	736.00
437.41	743.00
437.45	747.00
437.49	733.00
437.52	732.00
437.56	740.00
437.60	739.00
437.63	750.00
437.67	739.00
437.70	741.00
437.74	744.00
437.78	740.00
437.81	750.00
437.85	748.00
437.89	742.00
437.92	744.00
437.96	740.00
438.00	743.00
438.03	732.00
438.07	730.00
438.10	732.00
438.14	747.00
438.18	755.00
438.21	734.00
438.25	742.00
438.29	732.00
438.32	738.00
438.36	742.00
438.39	730.00
438.43	736.00
438.47	730.00
438.50	731.00
438.54	749.00
438.58	741.00
438.61	734.00
438.65	747.00
438.69	735.00
438.72	749.00
438.76	738.00
438.79	727.00
438.83	733.00
438.87	736.00
438.90	740.00
438.94	732.00
438.98	717.00
439.01	723.00
439.05	733.00
439.08	735.00
439.12	746.00
439.16	746.00
439.19	730.00
439.23	735.00
439.27	745.00
439.30	745.00
439.34	736.00
439.37	742.00
439.41	739.00
439.45	726.00
439.48	742.00
439.52	731.00
439.56	734.00
439.59	736.00
439.63	740.00
439.66	735.00
439.70	731.00
439.74	741.00
439.77	745.00
439.81	735.00
439.85	736.00
439.88	729.00
439.92	738.00
439.95	737.00
439.99	736.00
440.03	737.00
440.06	739.00
440.10	737.00
440.14	723.00
440.17	739.00
440.21	745.00
440.24	753.00
440.28	746.00
440.32	741.00
440.35	738.00
440.39	737.00
440.43	734.00
440.46	739.00
440.50	726.00
440.53	735.00
440.57	737.00
440.61	742.00
440.64	740.00
440.68	748.00
440.71	734.00
440.75	732.00
440.79	722.00
440.82	743.00
440.86	739.00
440.90	736.00
440.93	732.00
440.97	734.00
441.00	737.00
441.04	745.00
441.08	735.00
441.11	739.00
441.15	732.00
441.18	731.00
441.22	734.00
441.26	736.00
441.29	746.00
441.33	732.00
441.37	738.00
441.40	736.00
441.44	740.00
441.47	739.00
441.51	737.00
441.55	738.00
441.58	732.00
441.62	726.00
441.65	733.00
441.69	737.00
441.73	732.00
441.76	741.00
441.80	731.00
441.83	740.00
441.87	739.00
441.91	738.00
441.94	747.00
441.98	739.00
442.02	735.00
442.05	731.00
442.09	736.00
442.12	737.00
442.16	738.00
442.20	747.00
442.23	731.00
442.27	735.00
442.30	737.00
442.34	752.00
442.38	736.00
442.41	748.00
442.45	737.00
442.48	730.00
442.52	740.00
442.56	745.00
442.59	729.00
442.63	748.00
442.66	734.00
442.70	749.00
442.74	732.00
442.77	739.00
442.81	739.00
442.84	729.00
442.88	724.00
442.92	744.00
442.95	739.00
442.99	727.00
443.02	741.00
443.06	755.00
443.10	751.00
443.13	737.00
443.17	738.00
443.20	729.00
443.24	733.00
443.28	739.00
443.31	741.00
443.35	730.00
443.38	735.00
443.42	733.00
443.46	724.00
443.49	744.00
443.53	739.00
443.56	742.00
443.60	744.00
443.64	742.00
443.67	744.00
443.71	727.00
443.74	733.00
443.78	720.00
443.82	748.00
443.85	734.00
443.89	728.00
443.92	727.00
443.96	727.00
444.00	726.00
444.03	738.00
444.07	746.00
444.10	737.00
444.14	739.00
444.18	738.00
444.21	739.00
444.25	747.00
444.28	748.00
444.32	731.00
444.36	748.00
444.39	748.00
444.43	729.00
444.46	734.00
444.50	742.00
444.54	744.00
444.57	728.00
444.61	740.00
444.64	728.00
444.68	733.00
444.72	726.00
444.75	727.00
444.79	748.00
444.82	729.00
444.86	738.00
444.90	740.00
444.93	765.00
444.97	740.00
445.00	734.00
445.04	741.00
445.07	732.00
445.11	746.00
445.15	733.00
445.18	731.00
445.22	734.00
445.25	734.00
445.29	762.00
445.33	750.00
445.36	726.00
445.40	743.00
445.43	754.00
445.47	742.00
445.51	731.00
445.54	755.00
445.58	738.00
445.61	743.00
445.65	733.00
445.68	738.00
445.72	732.00
445.76	744.00
445.79	741.00
445.83	745.00
445.86	735.00
445.90	740.00
445.94	755.00
445.97	736.00
446.01	729.00
446.04	738.00
446.08	736.00
446.11	740.00
446.15	749.00
446.19	742.00
446.22	738.00
446.26	729.00
446.29	732.00
446.33	734.00
446.37	746.00
446.40	738.00
446.44	740.00
446.47	736.00
446.51	736.00
446.54	737.00
446.58	750.00
446.62	757.00
446.65	726.00
446.69	745.00
446.72	748.00
446.76	733.00
446.79	737.00
446.83	727.00
446.87	735.00
446.90	736.00
446.94	740.00
446.97	726.00
447.01	740.00
447.05	742.00
447.08	742.00
447.12	744.00
447.15	748.00
447.19	721.00
447.22	737.00
447.26	750.00
447.30	756.00
447.33	754.00
447.37	748.00
447.40	736.00
447.44	735.00
447.47	720.00
447.51	732.00
447.55	739.00
447.58	742.00
447.62	718.00
447.65	735.00
447.69	729.00
447.72	734.00
447.76	745.00
447.80	736.00
447.83	751.00
447.87	737.00
447.90	753.00
447.94	739.00
447.97	732.00
448.01	736.00
448.05	739.00
448.08	744.00
448.12	743.00
448.15	737.00
448.19	736.00
448.22	732.00
448.26	744.00
448.30	743.00
448.33	745.00
448.37	738.00
448.40	748.00
448.44	746.00
448.47	739.00
448.51	745.00
448.55	740.00
448.58	736.00
448.62	733.00
448.65	737.00
448.69	737.00
448.72	732.00
448.76	748.00
448.79	743.00
448.83	731.00
448.87	747.00
448.90	757.00
448.94	730.00
448.97	741.00
449.01	750.00
449.04	756.00
449.08	722.00
449.12	739.00
449.15	736.00
449.19	729.00
449.22	738.00
449.26	746.00
449.29	733.00
449.33	739.00
449.36	735.00
449.40	752.00
449.44	743.00
449.47	734.00
449.51	738.00
449.54	733.00
449.58	739.00
449.61	742.00
449.65	751.00
449.69	737.00
449.72	748.00
449.76	748.00
449.79	730.00
449.83	744.00
449.86	743.00
449.90	742.00
449.93	731.00
449.97	740.00
450.01	754.00
450.04	736.00
450.08	732.00
450.11	737.00
450.15	749.00
450.18	737.00
450.22	734.00
450.25	732.00
450.29	728.00
450.33	722.00
450.36	742.00
450.40	745.00
450.43	740.00
450.47	736.00
450.50	736.00
450.54	744.00
450.57	734.00
450.61	738.00
450.65	735.00
450.68	731.00
450.72	740.00
450.75	737.00
450.79	741.00
450.82	748.00
450.86	740.00
450.89	738.00
450.93	749.00
450.97	735.00
451.00	746.00
451.04	753.00
451.07	737.00
451.11	742.00
451.14	744.00
451.18	728.00
451.21	744.00
451.25	750.00
451.28	745.00
451.32	760.00
451.36	742.00
451.39	727.00
451.43	729.00
451.46	740.00
451.50	739.00
451.53	732.00
451.57	737.00
451.60	734.00
451.64	748.00
451.67	737.00
451.71	749.00
451.75	733.00
451.78	733.00
451.82	743.00
451.85	747.00
451.89	741.00
451.92	727.00
451.96	742.00
451.99	733.00
452.03	742.00
452.06	741.00
452.10	734.00
452.14	741.00
452.17	733.00
452.21	747.00
452.24	731.00
452.28	749.00
452.31	738.00
452.35	745.00
452.38	729.00
452.42	747.00
452.45	749.00
452.49	759.00
452.53	729.00
452.56	738.00
452.60	733.00
452.63	738.00
452.67	726.00
452.70	746.00
452.74	742.00
452.77	737.00
452.81	737.00
452.84	735.00
452.88	735.00
452.91	741.00
452.95	741.00
452.99	741.00
453.02	744.00
453.06	746.00
453.09	743.00
453.13	733.00
453.16	733.00
453.20	744.00
453.23	755.00
453.27	754.00
453.30	733.00
453.34	764.00
453.37	733.00
453.41	732.00
453.45	733.00
453.48	734.00
453.52	748.00
453.55	732.00
453.59	740.00
453.62	754.00
453.66	733.00
453.69	737.00
453.73	738.00
453.76	740.00
453.80	731.00
453.83	731.00
453.87	735.00
453.90	731.00
453.94	737.00
453.98	757.00
454.01	746.00
454.05	748.00
454.08	733.00
454.12	746.00
454.15	738.00
454.19	750.00
454.22	741.00
454.26	741.00
454.29	751.00
454.33	745.00
454.36	750.00
454.40	753.00
454.43	741.00
454.47	735.00
454.50	736.00
454.54	751.00
454.57	744.00
454.61	735.00
454.65	743.00
454.68	734.00
454.72	743.00
454.75	738.00
454.79	728.00
454.82	742.00
454.86	733.00
454.89	737.00
454.93	750.00
454.96	742.00
455.00	745.00
455.03	740.00
455.07	733.00
455.10	746.00
455.14	742.00
455.17	801.00
455.21	750.00
455.24	752.00
455.28	736.00
455.32	729.00
455.35	751.00
455.39	745.00
455.42	756.00
455.46	738.00
455.49	734.00
455.53	750.00
455.56	747.00
455.60	741.00
455.63	739.00
455.67	737.00
455.70	742.00
455.74	736.00
455.77	741.00
455.81	739.00
455.84	740.00
455.88	733.00
455.91	739.00
455.95	744.00
455.98	736.00
456.02	744.00
456.05	745.00
456.09	738.00
456.12	747.00
456.16	736.00
456.19	741.00
456.23	744.00
456.27	737.00
456.30	737.00
456.34	744.00
456.37	742.00
456.41	748.00
456.44	732.00
456.48	755.00
456.51	743.00
456.55	743.00
456.58	757.00
456.62	743.00
456.65	753.00
456.69	742.00
456.72	742.00
456.76	741.00
456.79	736.00
456.83	738.00
456.86	743.00
456.90	744.00
456.93	762.00
456.97	739.00
457.00	750.00
457.04	736.00
457.07	742.00
457.11	744.00
457.14	747.00
457.18	738.00
457.21	737.00
457.25	730.00
457.28	728.00
457.32	740.00
457.35	746.00
457.39	737.00
457.42	737.00
457.46	741.00
457.49	744.00
457.53	752.00
457.56	752.00
457.60	741.00
457.63	742.00
457.67	750.00
457.70	745.00
457.74	733.00
457.77	736.00
457.81	734.00
457.84	746.00
457.88	730.00
457.92	744.00
457.95	736.00
457.99	734.00
458.02	749.00
458.06	752.00
458.09	740.00
458.13	743.00
458.16	747.00
458.20	757.00
458.23	750.00
458.27	737.00
458.30	743.00
458.34	739.00
458.37	724.00
458.41	735.00
458.44	732.00
458.48	749.00
458.51	736.00
458.55	740.00
458.58	731.00
458.62	749.00
458.65	745.00
458.69	741.00
458.72	734.00
458.76	736.00
458.79	734.00
458.83	739.00
458.86	737.00
458.90	740.00
458.93	736.00
458.97	725.00
459.00	741.00
459.04	745.00
459.07	747.00
459.11	741.00
459.14	745.00
459.18	736.00
459.21	736.00
459.25	738.00
459.28	727.00
459.31	738.00
459.35	732.00
459.38	754.00
459.42	734.00
459.45	738.00
459.49	736.00
459.52	748.00
459.56	736.00
459.59	755.00
459.63	740.00
459.66	746.00
459.70	743.00
459.73	736.00
459.77	741.00
459.80	739.00
459.84	733.00
459.87	736.00
459.91	756.00
459.94	752.00
459.98	741.00
460.01	741.00
460.05	745.00
460.08	739.00
460.12	809.00
460.15	757.00
460.19	742.00
460.22	740.00
460.26	741.00
460.29	748.00
460.33	746.00
460.36	745.00
460.40	744.00
460.43	753.00
460.47	750.00
460.50	750.00
460.54	746.00
460.57	747.00
460.61	750.00
460.64	736.00
460.68	738.00
460.71	737.00
460.75	737.00
460.78	746.00
460.82	742.00
460.85	742.00
460.89	758.00
460.92	742.00
460.96	756.00
460.99	746.00
461.02	735.00
461.06	745.00
461.09	737.00
461.13	759.00
461.16	739.00
461.20	745.00
461.23	746.00
461.27	737.00
461.30	744.00
461.34	730.00
461.37	740.00
461.41	755.00
461.44	750.00
461.48	748.00
461.51	729.00
461.55	739.00
461.58	740.00
461.62	744.00
461.65	732.00
461.69	741.00
461.72	732.00
461.76	748.00
461.79	737.00
461.83	745.00
461.86	729.00
461.89	738.00
461.93	745.00
461.96	743.00
462.00	753.00
462.03	742.00
462.07	745.00
462.10	730.00
462.14	733.00
462.17	732.00
462.21	737.00
462.24	754.00
462.28	750.00
462.31	732.00
462.35	739.00
462.38	735.00
462.42	742.00
462.45	742.00
462.49	734.00
462.52	751.00
462.56	733.00
462.59	748.00
462.62	730.00
462.66	741.00
462.69	724.00
462.73	744.00
462.76	751.00
462.80	750.00
462.83	743.00
462.87	734.00
462.90	737.00
462.94	743.00
462.97	748.00
463.01	743.00
463.04	745.00
463.08	734.00
463.11	740.00
463.15	745.00
463.18	748.00
463.21	747.00
463.25	737.00
463.28	742.00
463.32	740.00
463.35	730.00
463.39	740.00
463.42	745.00
463.46	736.00
463.49	747.00
463.53	724.00
463.56	741.00
463.60	734.00
463.63	739.00
463.67	744.00
463.70	732.00
463.73	748.00
463.77	743.00
463.80	735.00
463.84	737.00
463.87	749.00
463.91	739.00
463.94	745.00
463.98	740.00
464.01	752.00
464.05	743.00
464.08	743.00
464.12	741.00
464.15	738.00
464.18	744.00
464.22	733.00
464.25	750.00
464.29	752.00
464.32	730.00
464.36	740.00
464.39	750.00
464.43	740.00
464.46	726.00
464.50	738.00
464.53	722.00
464.57	746.00
464.60	734.00
464.63	744.00
464.67	734.00
464.70	726.00
464.74	729.00
464.77	743.00
464.81	738.00
464.84	742.00
464.88	736.00
464.91	754.00
464.95	749.00
464.98	749.00
465.02	734.00
465.05	738.00
465.08	732.00
465.12	740.00
465.15	734.00
465.19	737.00
465.22	744.00
465.26	724.00
465.29	752.00
465.33	735.00
465.36	746.00
465.40	739.00
465.43	733.00
465.46	740.00
465.50	737.00
465.53	740.00
465.57	725.00
465.60	724.00
465.64	739.00
465.67	739.00
465.71	739.00
465.74	746.00
465.77	734.00
465.81	733.00
465.84	736.00
465.88	728.00
465.91	745.00
465.95	740.00
465.98	743.00
466.02	747.00
466.05	744.00
466.09	750.00
466.12	733.00
466.15	742.00
466.19	736.00
466.22	741.00
466.26	736.00
466.29	747.00
466.33	736.00
466.36	746.00
466.40	729.00
466.43	729.00
466.46	745.00
466.50	747.00
466.53	740.00
466.57	744.00
466.60	755.00
466.64	737.00
466.67	735.00
466.71	745.00
466.74	738.00
466.77	742.00
466.81	743.00
466.84	733.00
466.88	742.00
466.91	745.00
466.95	746.00
466.98	726.00
467.02	754.00
467.05	745.00
467.08	744.00
467.12	736.00
467.15	748.00
467.19	737.00
467.22	733.00
467.26	734.00
467.29	745.00
467.33	741.00
467.36	735.00
467.39	749.00
467.43	741.00
467.46	746.00
467.50	744.00
467.53	730.00
467.57	733.00
467.60	738.00
467.63	726.00
467.67	746.00
467.70	755.00
467.74	742.00
467.77	746.00
467.81	749.00
467.84	749.00
467.88	746.00
467.91	746.00
467.94	741.00
467.98	735.00
468.01	750.00
468.05	748.00
468.08	740.00
468.12	737.00
468.15	738.00
468.18	752.00
468.22	736.00
468.25	744.00
468.29	748.00
468.32	738.00
468.36	747.00
468.39	733.00
468.42	740.00
468.46	744.00
468.49	735.00
468.53	739.00
468.56	734.00
468.60	743.00
468.63	739.00
468.67	750.00
468.70	731.00
468.73	742.00
468.77	731.00
468.80	733.00
468.84	744.00
468.87	733.00
468.91	733.00
468.94	728.00
468.97	730.00
469.01	734.00
469.04	740.00
469.08	740.00
469.11	744.00
469.15	736.00
469.18	740.00
469.21	744.00
469.25	731.00
469.28	753.00
469.32	737.00
469.35	740.00
469.38	743.00
469.42	730.00
469.45	726.00
469.49	734.00
469.52	739.00
469.56	732.00
469.59	731.00
469.62	722.00
469.66	738.00
469.69	737.00
469.73	734.00
469.76	742.00
469.80	726.00
469.83	730.00
469.86	742.00
469.90	736.00
469.93	734.00
469.97	724.00
470.00	729.00
470.04	739.00
470.07	752.00
470.10	730.00
470.14	749.00
470.17	739.00
470.21	729.00
470.24	733.00
470.27	749.00
470.31	741.00
470.34	750.00
470.38	749.00
470.41	740.00
470.45	733.00
470.48	731.00
470.51	737.00
470.55	741.00
470.58	731.00
470.62	736.00
470.65	733.00
470.68	728.00
470.72	740.00
470.75	740.00
470.79	735.00
470.82	753.00
470.86	736.00
470.89	747.00
470.92	748.00
470.96	745.00
470.99	745.00
471.03	743.00
471.06	738.00
471.09	741.00
471.13	744.00
471.16	745.00
471.20	748.00
471.23	748.00
471.27	737.00
471.30	729.00
471.33	746.00
471.37	751.00
471.40	744.00
471.44	744.00
471.47	745.00
471.50	737.00
471.54	746.00
471.57	746.00
471.61	738.00
471.64	732.00
471.67	737.00
471.71	739.00
471.74	734.00
471.78	737.00
471.81	739.00
471.85	743.00
471.88	734.00
471.91	728.00
471.95	740.00
471.98	744.00
472.02	748.00
472.05	736.00
472.08	730.00
472.12	731.00
472.15	746.00
472.19	738.00
472.22	746.00
472.25	739.00
472.29	728.00
472.32	728.00
472.36	744.00
472.39	731.00
472.42	737.00
472.46	736.00
472.49	735.00
472.53	734.00
472.56	740.00
472.59	740.00
472.63	735.00
472.66	745.00
472.70	746.00
472.73	739.00
472.76	735.00
472.80	742.00
472.83	740.00
472.87	722.00
472.90	736.00
472.93	732.00
472.97	737.00
473.00	737.00
473.04	719.00
473.07	728.00
473.10	752.00
473.14	729.00
473.17	733.00
473.21	736.00
473.24	727.00
473.27	723.00
473.31	734.00
473.34	746.00
473.38	733.00
473.41	738.00
473.44	737.00
473.48	742.00
473.51	738.00
473.55	736.00
473.58	734.00
473.61	735.00
473.65	745.00
473.68	731.00
473.72	737.00
473.75	734.00
473.78	739.00
473.82	732.00
473.85	737.00
473.89	730.00
473.92	730.00
473.95	742.00
473.99	732.00
474.02	737.00
474.06	736.00
474.09	742.00
474.12	739.00
474.16	739.00
474.19	738.00
474.22	725.00
474.26	750.00
474.29	735.00
474.33	746.00
474.36	729.00
474.39	735.00
474.43	736.00
474.46	743.00
474.50	735.00
474.53	737.00
474.56	728.00
474.60	737.00
474.63	737.00
474.67	734.00
474.70	729.00
474.73	741.00
474.77	722.00
474.80	744.00
474.83	738.00
474.87	734.00
474.90	764.00
474.94	754.00
474.97	749.00
475.00	743.00
475.04	748.00
475.07	741.00
475.11	736.00
475.14	737.00
475.17	742.00
475.21	740.00
475.24	728.00
475.28	733.00
475.31	734.00
475.34	739.00
475.38	739.00
475.41	735.00
475.44	728.00
475.48	742.00
475.51	733.00
475.55	731.00
475.58	734.00
475.61	741.00
475.65	731.00
475.68	743.00
475.71	725.00
475.75	728.00
475.78	715.00
475.82	728.00
475.85	747.00
475.88	742.00
475.92	728.00
475.95	736.00
475.99	740.00
476.02	741.00
476.05	738.00
476.09	755.00
476.12	731.00
476.15	734.00
476.19	733.00
476.22	744.00
476.26	718.00
476.29	747.00
476.32	740.00
476.36	738.00
476.39	739.00
476.42	730.00
476.46	735.00
476.49	736.00
476.53	745.00
476.56	755.00
476.59	751.00
476.63	741.00
476.66	738.00
476.69	736.00
476.73	729.00
476.76	741.00
476.80	730.00
476.83	737.00
476.86	727.00
476.90	731.00
476.93	747.00
476.96	756.00
477.00	744.00
477.03	740.00
477.06	744.00
477.10	749.00
477.13	736.00
477.17	730.00
477.20	738.00
477.23	736.00
477.27	755.00
477.30	740.00
477.33	736.00
477.37	744.00
477.40	736.00
477.44	750.00
477.47	748.00
477.50	737.00
477.54	735.00
477.57	744.00
477.60	731.00
477.64	737.00
477.67	730.00
477.70	746.00
477.74	741.00
477.77	744.00
477.81	740.00
477.84	734.00
477.87	726.00
477.91	742.00
477.94	739.00
477.97	737.00
478.01	751.00
478.04	754.00
478.08	747.00
478.11	738.00
478.14	741.00
478.18	740.00
478.21	729.00
478.24	741.00
478.28	722.00
478.31	742.00
478.34	740.00
478.38	737.00
478.41	739.00
478.44	740.00
478.48	730.00
478.51	725.00
478.55	730.00
478.58	737.00
478.61	732.00
478.65	747.00
478.68	752.00
478.71	734.00
478.75	738.00
478.78	736.00
478.81	740.00
478.85	728.00
478.88	741.00
478.92	740.00
478.95	740.00
478.98	744.00
479.02	732.00
479.05	744.00
479.08	740.00
479.12	744.00
479.15	739.00
479.18	744.00
479.22	745.00
479.25	734.00
479.28	727.00
479.32	733.00
479.35	739.00
479.38	734.00
479.42	736.00
479.45	737.00
479.49	753.00
479.52	744.00
479.55	734.00
479.59	740.00
479.62	730.00
479.65	734.00
479.69	743.00
479.72	730.00
479.75	745.00
479.79	741.00
479.82	739.00
479.85	745.00
479.89	746.00
479.92	738.00
479.95	741.00
479.99	745.00
480.02	738.00
480.06	749.00
480.09	738.00
480.12	730.00
480.16	749.00
480.19	745.00
480.22	736.00
480.26	741.00
480.29	727.00
480.32	741.00
480.36	754.00
480.39	755.00
480.42	743.00
480.46	748.00
480.49	743.00
480.52	742.00
480.56	738.00
480.59	736.00
480.62	746.00
480.66	748.00
480.69	739.00
480.72	731.00
480.76	748.00
480.79	749.00
480.82	732.00
480.86	744.00
480.89	742.00
480.93	745.00
480.96	738.00
480.99	749.00
481.03	739.00
481.06	730.00
481.09	744.00
481.13	736.00
481.16	731.00
481.19	729.00
481.23	738.00
481.26	742.00
481.29	743.00
481.33	748.00
481.36	733.00
481.39	736.00
481.43	736.00
481.46	740.00
481.49	755.00
481.53	748.00
481.56	742.00
481.59	736.00
481.63	741.00
481.66	744.00
481.69	739.00
481.73	730.00
481.76	741.00
481.79	746.00
481.83	738.00
481.86	748.00
481.89	740.00
481.93	752.00
481.96	731.00
481.99	732.00
482.03	733.00
482.06	756.00
482.09	762.00
482.13	755.00
482.16	739.00
482.19	744.00
482.23	734.00
482.26	741.00
482.29	754.00
482.33	742.00
482.36	741.00
482.39	741.00
482.43	749.00
482.46	740.00
482.49	741.00
482.53	747.00
482.56	725.00
482.59	750.00
482.63	730.00
482.66	734.00
482.69	746.00
482.73	751.00
482.76	736.00
482.79	739.00
482.83	746.00
482.86	747.00
482.89	756.00
482.93	732.00
482.96	733.00
482.99	742.00
483.03	733.00
483.06	747.00
483.09	737.00
483.13	731.00
483.16	744.00
483.19	732.00
483.23	726.00
483.26	740.00
483.29	740.00
483.33	746.00
483.36	749.00
483.39	750.00
483.43	753.00
483.46	744.00
483.49	746.00
483.52	736.00
483.56	738.00
483.59	745.00
483.62	744.00
483.66	758.00
483.69	728.00
483.72	727.00
483.76	740.00
483.79	734.00
483.82	740.00
483.86	750.00
483.89	735.00
483.92	738.00
483.96	729.00
483.99	728.00
484.02	734.00
484.06	746.00
484.09	758.00
484.12	751.00
484.16	734.00
484.19	742.00
484.22	737.00
484.26	739.00
484.29	734.00
484.32	746.00
484.35	748.00
484.39	747.00
484.42	742.00
484.45	744.00
484.49	750.00
484.52	731.00
484.55	739.00
484.59	737.00
484.62	743.00
484.65	746.00
484.69	742.00
484.72	734.00
484.75	743.00
484.79	744.00
484.82	745.00
484.85	736.00
484.89	737.00
484.92	740.00
484.95	737.00
484.98	743.00
485.02	738.00
485.05	734.00
485.08	748.00
485.12	745.00
485.15	744.00
485.18	744.00
485.22	741.00
485.25	765.00
485.28	742.00
485.32	748.00
485.35	738.00
485.38	732.00
485.42	735.00
485.45	736.00
485.48	724.00
485.49	720.00
>>>>>End Processed Spectral Data<<<<<
