SpectraSuite Data File
++++++++++++++++++++++++++++++++++++
Date: Wed Jun 01 00:00:0 VET 2014
User: Flat
Dark Spectrum Present: No
Reference Spectrum Present: No
Number of Sampled Component Spectra: 1
Spectrometers: HR4C5177
Integration Time (usec): 25000 (HR4C5177)
Spectra Averaged: 1 (HR4C5177)
Boxcar Smoothing: 0 (HR4C5177)
Correct for Electrical Dark: No (HR4C5177)
Strobe/Lamp Enabled: No (HR4C5177)
Correct for Detector Non-linearity: No (HR4C5177)
Correct for Stray Light: No (HR4C5177)
Number of Pixels in Processed Spectrum: 3648
>>>>>Begin Processed Spectral Data<<<<<
349.50	681.00
349.54	681.00
349.58	698.00
349.62	736.00
349.66	735.00
349.70	717.00
349.75	734.00
349.79	747.00
349.83	737.00
349.87	747.00
349.91	732.00
349.95	717.00
349.99	726.00
350.03	732.00
350.08	734.00
350.12	739.00
350.16	869.00
350.20	1039.00
350.24	1061.00
350.28	1059.00
350.32	1048.00
350.36	1022.00
350.40	1017.00
350.45	997.00
350.49	1003.00
350.53	1007.00
350.57	1008.00
350.61	1009.00
350.65	1033.00
350.69	1057.00
350.73	1041.00
350.77	1061.00
350.82	1069.00
350.86	1030.00
350.90	1005.00
350.94	977.00
350.98	1020.00
351.02	1031.00
351.06	1030.00
351.10	1038.00
351.15	1010.00
351.19	1014.00
351.23	1004.00
351.27	1006.00
351.31	968.00
351.35	999.00
351.39	968.00
351.43	1020.00
351.47	1048.00
351.52	1071.00
351.56	1106.00
351.60	1110.00
351.64	1119.00
351.68	1139.00
351.72	1118.00
351.76	1123.00
351.80	1125.00
351.84	1108.00
351.88	1073.00
351.93	1076.00
351.97	1067.00
352.01	1049.00
352.05	1034.00
352.09	1046.00
352.13	1062.00
352.17	1090.00
352.21	1048.00
352.25	1038.00
352.30	1021.00
352.34	997.00
352.38	986.00
352.42	1030.00
352.46	1028.00
352.50	1003.00
352.54	981.00
352.58	992.00
352.62	1055.00
352.67	1063.00
352.71	1108.00
352.75	1174.00
352.79	1172.00
352.83	1163.00
352.87	1118.00
352.91	1137.00
352.95	1134.00
352.99	1149.00
353.03	1175.00
353.08	1149.00
353.12	1139.00
353.16	1104.00
353.20	1099.00
353.24	1133.00
353.28	1165.00
353.32	1220.00
353.36	1201.00
353.40	1226.00
353.44	1205.00
353.49	1185.00
353.53	1193.00
353.57	1180.00
353.61	1172.00
353.65	1183.00
353.69	1188.00
353.73	1187.00
353.77	1211.00
353.81	1272.00
353.85	1298.00
353.90	1279.00
353.94	1264.00
353.98	1232.00
354.02	1197.00
354.06	1202.00
354.10	1216.00
354.14	1197.00
354.18	1213.00
354.22	1249.00
354.26	1275.00
354.31	1274.00
354.35	1309.00
354.39	1299.00
354.43	1291.00
354.47	1260.00
354.51	1281.00
354.55	1306.00
354.59	1353.00
354.63	1313.00
354.67	1248.00
354.72	1233.00
354.76	1249.00
354.80	1284.00
354.84	1310.00
354.88	1335.00
354.92	1331.00
354.96	1346.00
355.00	1348.00
355.04	1305.00
355.08	1331.00
355.12	1299.00
355.17	1309.00
355.21	1293.00
355.25	1286.00
355.29	1258.00
355.33	1210.00
355.37	1207.00
355.41	1201.00
355.45	1243.00
355.49	1338.00
355.53	1371.00
355.57	1371.00
355.62	1320.00
355.66	1335.00
355.70	1361.00
355.74	1356.00
355.78	1278.00
355.82	1255.00
355.86	1303.00
355.90	1336.00
355.94	1347.00
355.98	1337.00
356.02	1339.00
356.07	1369.00
356.11	1362.00
356.15	1377.00
356.19	1455.00
356.23	1494.00
356.27	1486.00
356.31	1454.00
356.35	1425.00
356.39	1316.00
356.43	1230.00
356.47	1162.00
356.51	1146.00
356.56	1150.00
356.60	1195.00
356.64	1284.00
356.68	1341.00
356.72	1357.00
356.76	1373.00
356.80	1327.00
356.84	1241.00
356.88	1196.00
356.92	1124.00
356.96	1141.00
357.00	1214.00
357.05	1294.00
357.09	1283.00
357.13	1299.00
357.17	1301.00
357.21	1365.00
357.25	1410.00
357.29	1388.00
357.33	1359.00
357.37	1403.00
357.41	1404.00
357.45	1397.00
357.49	1393.00
357.54	1430.00
357.58	1447.00
357.62	1479.00
357.66	1480.00
357.70	1477.00
357.74	1396.00
357.78	1347.00
357.82	1315.00
357.86	1340.00
357.90	1339.00
357.94	1340.00
357.98	1265.00
358.03	1183.00
358.07	1139.00
358.11	1140.00
358.15	1187.00
358.19	1243.00
358.23	1326.00
358.27	1362.00
358.31	1379.00
358.35	1361.00
358.39	1331.00
358.43	1262.00
358.47	1199.00
358.51	1178.00
358.56	1241.00
358.60	1269.00
358.64	1251.00
358.68	1265.00
358.72	1290.00
358.76	1334.00
358.80	1382.00
358.84	1370.00
358.88	1365.00
358.92	1364.00
358.96	1452.00
359.00	1531.00
359.04	1621.00
359.08	1677.00
359.13	1689.00
359.17	1666.00
359.21	1640.00
359.25	1592.00
359.29	1531.00
359.33	1553.00
359.37	1625.00
359.41	1621.00
359.45	1661.00
359.49	1688.00
359.53	1777.00
359.57	1755.00
359.61	1808.00
359.66	1813.00
359.70	1794.00
359.74	1768.00
359.78	1769.00
359.82	1787.00
359.86	1801.00
359.90	1807.00
359.94	1840.00
359.98	1929.00
360.02	1939.00
360.06	1899.00
360.10	1830.00
360.14	1730.00
360.18	1621.00
360.22	1587.00
360.27	1611.00
360.31	1636.00
360.35	1661.00
360.39	1626.00
360.43	1649.00
360.47	1568.00
360.51	1544.00
360.55	1610.00
360.59	1674.00
360.63	1693.00
360.67	1743.00
360.71	1744.00
360.75	1652.00
360.79	1522.00
360.83	1431.00
360.88	1399.00
360.92	1474.00
360.96	1567.00
361.00	1518.00
361.04	1605.00
361.08	1731.00
361.12	1789.00
361.16	1834.00
361.20	1828.00
361.24	1723.00
361.28	1626.00
361.32	1648.00
361.36	1671.00
361.40	1761.00
361.44	1818.00
361.48	1876.00
361.53	1949.00
361.57	1923.00
361.61	1859.00
361.65	1884.00
361.69	1816.00
361.73	1669.00
361.77	1573.00
361.81	1480.00
361.85	1376.00
361.89	1385.00
361.93	1492.00
361.97	1607.00
362.01	1714.00
362.05	1756.00
362.09	1771.00
362.13	1818.00
362.17	1865.00
362.22	1997.00
362.26	2027.00
362.30	1974.00
362.34	1871.00
362.38	1846.00
362.42	1880.00
362.46	1942.00
362.50	2058.00
362.54	2174.00
362.58	2295.00
362.62	2292.00
362.66	2308.00
362.70	2265.00
362.74	2245.00
362.78	2187.00
362.82	2207.00
362.86	2183.00
362.91	2207.00
362.95	2142.00
362.99	1956.00
363.03	1767.00
363.07	1622.00
363.11	1499.00
363.15	1512.00
363.19	1665.00
363.23	1798.00
363.27	1850.00
363.31	1912.00
363.35	1974.00
363.39	1929.00
363.43	1829.00
363.47	1849.00
363.51	1939.00
363.55	2016.00
363.59	2080.00
363.63	2040.00
363.68	2041.00
363.72	2078.00
363.76	2113.00
363.80	2083.00
363.84	2232.00
363.88	2298.00
363.92	2318.00
363.96	2331.00
364.00	2350.00
364.04	2328.00
364.08	2365.00
364.12	2302.00
364.16	2224.00
364.20	2240.00
364.24	2155.00
364.28	2113.00
364.32	2135.00
364.36	2108.00
364.40	2090.00
364.44	2015.00
364.48	1963.00
364.53	1964.00
364.57	2052.00
364.61	2156.00
364.65	2146.00
364.69	2045.00
364.73	1912.00
364.77	1812.00
364.81	1855.00
364.85	2038.00
364.89	2081.00
364.93	2045.00
364.97	2066.00
365.01	2114.00
365.05	2241.00
365.09	2271.00
365.13	2221.00
365.17	2269.00
365.21	2445.00
365.25	2596.00
365.29	2620.00
365.33	2564.00
365.37	2506.00
365.41	2505.00
365.46	2519.00
365.50	2497.00
365.54	2454.00
365.58	2538.00
365.62	2563.00
365.66	2671.00
365.70	2659.00
365.74	2636.00
365.78	2579.00
365.82	2666.00
365.86	2794.00
365.90	2864.00
365.94	2747.00
365.98	2665.00
366.02	2648.00
366.06	2683.00
366.10	2751.00
366.14	2799.00
366.18	2783.00
366.22	2665.00
366.26	2682.00
366.30	2612.00
366.34	2529.00
366.38	2534.00
366.42	2558.00
366.47	2538.00
366.51	2704.00
366.55	2806.00
366.59	2778.00
366.63	2624.00
366.67	2541.00
366.71	2633.00
366.75	2758.00
366.79	2738.00
366.83	2685.00
366.87	2583.00
366.91	2429.00
366.95	2376.00
366.99	2455.00
367.03	2501.00
367.07	2627.00
367.11	2788.00
367.15	2918.00
367.19	2959.00
367.23	2996.00
367.27	2922.00
367.31	2833.00
367.35	2775.00
367.39	2749.00
367.43	2729.00
367.47	2845.00
367.51	2949.00
367.55	2963.00
367.59	2998.00
367.63	2834.00
367.68	2748.00
367.72	2651.00
367.76	2501.00
367.80	2476.00
367.84	2660.00
367.88	2675.00
367.92	2619.00
367.96	2469.00
368.00	2373.00
368.04	2456.00
368.08	2518.00
368.12	2677.00
368.16	2742.00
368.20	2780.00
368.24	2715.00
368.28	2765.00
368.32	2863.00
368.36	2982.00
368.40	2974.00
368.44	2878.00
368.48	2849.00
368.52	2676.00
368.56	2626.00
368.60	2649.00
368.64	2659.00
368.68	2619.00
368.72	2484.00
368.76	2323.00
368.80	2443.00
368.84	2638.00
368.88	2716.00
368.92	2809.00
368.96	2874.00
369.00	3046.00
369.04	3165.00
369.08	3252.00
369.12	3397.00
369.17	3429.00
369.21	3447.00
369.25	3351.00
369.29	3178.00
369.33	3004.00
369.37	2940.00
369.41	2886.00
369.45	2956.00
369.49	3090.00
369.53	3146.00
369.57	3117.00
369.61	3146.00
369.65	3117.00
369.69	3107.00
369.73	3208.00
369.77	3216.00
369.81	3289.00
369.85	3374.00
369.89	3450.00
369.93	3529.00
369.97	3634.00
370.01	3621.00
370.05	3607.00
370.09	3490.00
370.13	3331.00
370.17	3447.00
370.21	3482.00
370.25	3361.00
370.29	3385.00
370.33	3260.00
370.37	3008.00
370.41	2778.00
370.45	2702.00
370.49	2737.00
370.53	2680.00
370.57	2519.00
370.61	2433.00
370.65	2711.00
370.69	2893.00
370.73	2817.00
370.77	2684.00
370.81	2671.00
370.85	2795.00
370.89	2792.00
370.93	2650.00
370.97	2695.00
371.01	2985.00
371.05	3240.00
371.09	3408.00
371.13	3399.00
371.17	3453.00
371.21	3587.00
371.25	3690.00
371.29	3777.00
371.33	3908.00
371.37	4027.00
371.41	4095.00
371.45	4056.00
371.49	4009.00
371.54	3780.00
371.58	3571.00
371.62	3546.00
371.66	3505.00
371.70	3627.00
371.74	3661.00
371.78	3566.00
371.82	3443.00
371.86	3204.00
371.90	2962.00
371.94	2739.00
371.98	2440.00
372.02	2306.00
372.06	2301.00
372.10	2511.00
372.14	2484.00
372.18	2472.00
372.22	2543.00
372.26	2586.00
372.30	2778.00
372.34	3121.00
372.38	3328.00
372.42	3418.00
372.46	3446.00
372.50	3537.00
372.54	3742.00
372.58	3850.00
372.62	3869.00
372.66	3676.00
372.70	3299.00
372.74	2980.00
372.78	2793.00
372.82	2956.00
372.86	3372.00
372.90	3625.00
372.94	3740.00
372.98	3842.00
373.02	3698.00
373.06	3419.00
373.10	3309.00
373.14	3292.00
373.18	3321.00
373.22	3264.00
373.26	3108.00
373.30	2937.00
373.34	2724.00
373.38	2526.00
373.42	2509.00
373.46	2402.00
373.50	2225.00
373.54	2232.00
373.58	2386.00
373.62	2590.00
373.66	2616.00
373.70	2467.00
373.74	2367.00
373.78	2568.00
373.82	2944.00
373.86	3130.00
373.90	3365.00
373.94	3416.00
373.98	3483.00
374.02	3660.00
374.06	3733.00
374.10	3922.00
374.14	3955.00
374.18	3743.00
374.22	3662.00
374.26	3571.00
374.30	3367.00
374.34	3050.00
374.38	2886.00
374.42	2938.00
374.46	3093.00
374.50	3128.00
374.54	2893.00
374.58	2622.00
374.62	2482.00
374.66	2699.00
374.70	2950.00
374.74	3029.00
374.78	3045.00
374.82	2870.00
374.86	2503.00
374.90	2361.00
374.94	2395.00
374.98	2404.00
375.02	2628.00
375.06	3044.00
375.10	3369.00
375.14	3659.00
375.18	3890.00
375.22	3965.00
375.26	4097.00
375.30	3927.00
375.34	3908.00
375.38	3940.00
375.42	4145.00
375.46	4378.00
375.50	4386.00
375.54	4594.00
375.58	4616.00
375.62	4533.00
375.66	4386.00
375.70	4103.00
375.74	3675.00
375.78	3280.00
375.82	2958.00
375.85	2718.00
375.89	2873.00
375.93	3059.00
375.97	3290.00
376.01	3610.00
376.05	3718.00
376.09	3785.00
376.13	3836.00
376.17	3702.00
376.21	3772.00
376.25	3832.00
376.29	3823.00
376.33	3648.00
376.37	3498.00
376.41	3258.00
376.45	3470.00
376.49	3913.00
376.53	4156.00
376.57	4174.00
376.61	3890.00
376.65	3770.00
376.69	3612.00
376.73	3337.00
376.77	3321.00
376.81	3679.00
376.85	3959.00
376.89	4236.00
376.93	4376.00
376.97	4457.00
377.01	4294.00
377.05	4098.00
377.09	3959.00
377.13	4130.00
377.17	4360.00
377.21	4497.00
377.25	4731.00
377.29	4773.00
377.33	4812.00
377.37	4723.00
377.41	4677.00
377.45	4630.00
377.49	4443.00
377.53	4441.00
377.57	4421.00
377.61	4429.00
377.65	4402.00
377.69	4500.00
377.73	4712.00
377.77	4588.00
377.81	4527.00
377.85	4386.00
377.89	4385.00
377.93	4483.00
377.97	4644.00
378.01	4811.00
378.05	5101.00
378.09	5155.00
378.13	4976.00
378.16	4901.00
378.20	4869.00
378.24	4790.00
378.28	4785.00
378.32	4912.00
378.36	5009.00
378.40	4914.00
378.44	5071.00
378.48	5289.00
378.52	5233.00
378.56	4904.00
378.60	4326.00
378.64	3889.00
378.68	3768.00
378.72	3939.00
378.76	4173.00
378.80	4108.00
378.84	3931.00
378.88	4043.00
378.92	4002.00
378.96	3937.00
379.00	3835.00
379.04	3802.00
379.08	3975.00
379.12	4182.00
379.16	4537.00
379.20	4641.00
379.24	4568.00
379.28	4380.00
379.32	4247.00
379.36	4164.00
379.40	4006.00
379.44	3977.00
379.48	3998.00
379.52	3878.00
379.56	3798.00
379.60	4091.00
379.63	4360.00
379.67	4527.00
379.71	4375.00
379.75	4103.00
379.79	3814.00
379.83	3677.00
379.87	3651.00
379.91	3698.00
379.95	3862.00
379.99	3977.00
380.03	4083.00
380.07	4621.00
380.11	4896.00
380.15	4964.00
380.19	4675.00
380.23	4464.00
380.27	4624.00
380.31	5065.00
380.35	5217.00
380.39	5268.00
380.43	5363.00
380.47	5192.00
380.51	5149.00
380.55	4971.00
380.59	4887.00
380.63	4860.00
380.67	4663.00
380.71	4267.00
380.75	4135.00
380.79	4123.00
380.82	4409.00
380.86	4706.00
380.90	4913.00
380.94	5039.00
380.98	5092.00
381.02	5089.00
381.06	5270.00
381.10	5318.00
381.14	5111.00
381.18	5057.00
381.22	5030.00
381.26	4741.00
381.30	4615.00
381.34	4351.00
381.38	3996.00
381.42	4028.00
381.46	4058.00
381.50	4029.00
381.54	3838.00
381.58	3822.00
381.62	3551.00
381.66	3492.00
381.70	3809.00
381.74	4330.00
381.78	4667.00
381.81	4640.00
381.85	4607.00
381.89	4580.00
381.93	4404.00
381.97	4033.00
382.01	3591.00
382.05	3277.00
382.09	3096.00
382.13	3229.00
382.17	3644.00
382.21	4077.00
382.25	4240.00
382.29	4475.00
382.33	4566.00
382.37	4438.00
382.41	4094.00
382.45	3666.00
382.49	3367.00
382.53	3326.00
382.57	3415.00
382.61	3293.00
382.65	3161.00
382.68	3317.00
382.72	3532.00
382.76	3616.00
382.80	3606.00
382.84	3411.00
382.88	3555.00
382.92	3762.00
382.96	3786.00
383.00	3648.00
383.04	3880.00
383.08	4179.00
383.12	4159.00
383.16	3972.00
383.20	3857.00
383.24	3523.00
383.28	3211.00
383.32	3260.00
383.36	3398.00
383.40	3476.00
383.44	3476.00
383.48	3376.00
383.51	3633.00
383.55	4000.00
383.59	4187.00
383.63	4259.00
383.67	4332.00
383.71	4231.00
383.75	4062.00
383.79	3837.00
383.83	3579.00
383.87	3287.00
383.91	3235.00
383.95	3535.00
383.99	3688.00
384.03	3646.00
384.07	3565.00
384.11	3382.00
384.15	3561.00
384.19	3855.00
384.23	4432.00
384.26	4768.00
384.30	5125.00
384.34	4968.00
384.38	4778.00
384.42	4838.00
384.46	4946.00
384.50	5124.00
384.54	5099.00
384.58	4764.00
384.62	4697.00
384.66	4866.00
384.70	4820.00
384.74	4841.00
384.78	5081.00
384.82	5406.00
384.86	5365.00
384.90	5142.00
384.93	4972.00
384.97	4594.00
385.01	4368.00
385.05	4138.00
385.09	4272.00
385.13	4522.00
385.17	4892.00
385.21	5198.00
385.25	5346.00
385.29	5312.00
385.33	5054.00
385.37	5016.00
385.41	4823.00
385.45	4762.00
385.49	4664.00
385.53	4691.00
385.57	4859.00
385.60	4635.00
385.64	4385.00
385.68	4207.00
385.72	4347.00
385.76	4778.00
385.80	4853.00
385.84	4654.00
385.88	4156.00
385.92	3878.00
385.96	3762.00
386.00	3689.00
386.04	3485.00
386.08	3588.00
386.12	4015.00
386.16	4270.00
386.19	4564.00
386.23	4976.00
386.27	5684.00
386.31	5742.00
386.35	5744.00
386.39	5718.00
386.43	5468.00
386.47	5381.00
386.51	5398.00
386.55	5294.00
386.59	4922.00
386.63	4833.00
386.67	5098.00
386.71	5304.00
386.75	5231.00
386.78	5154.00
386.82	5067.00
386.86	5009.00
386.90	5034.00
386.94	5165.00
386.98	4989.00
387.02	4700.00
387.06	4570.00
387.10	4446.00
387.14	4257.00
387.18	4054.00
387.22	4068.00
387.26	4132.00
387.30	4104.00
387.33	4121.00
387.37	4596.00
387.41	4993.00
387.45	5236.00
387.49	5738.00
387.53	6089.00
387.57	6064.00
387.61	6068.00
387.65	5755.00
387.69	5600.00
387.73	5583.00
387.77	5201.00
387.81	4777.00
387.85	4396.00
387.88	3997.00
387.92	4078.00
387.96	4737.00
388.00	5355.00
388.04	5470.00
388.08	5342.00
388.12	5280.00
388.16	5043.00
388.20	4874.00
388.24	4614.00
388.28	4387.00
388.32	4394.00
388.36	4680.00
388.39	5303.00
388.43	6236.00
388.47	6492.00
388.51	5957.00
388.55	5604.00
388.59	5202.00
388.63	4708.00
388.67	4318.00
388.71	4345.00
388.75	4642.00
388.79	5160.00
388.83	5715.00
388.87	5701.00
388.90	5043.00
388.94	4689.00
388.98	5050.00
389.02	5667.00
389.06	6095.00
389.10	6285.00
389.14	6461.00
389.18	6558.00
389.22	6940.00
389.26	6930.00
389.30	6817.00
389.34	6563.00
389.37	6276.00
389.41	6294.00
389.45	6443.00
389.49	6354.00
389.53	6474.00
389.57	5861.00
389.61	5432.00
389.65	5858.00
389.69	6662.00
389.73	6975.00
389.77	7243.00
389.81	6956.00
389.84	6278.00
389.88	6124.00
389.92	6418.00
389.96	6284.00
390.00	5857.00
390.04	5559.00
390.08	6097.00
390.12	6455.00
390.16	6749.00
390.20	7166.00
390.24	6746.00
390.28	6210.00
390.31	5789.00
390.35	5445.00
390.39	5730.00
390.43	6249.00
390.47	6290.00
390.51	6441.00
390.55	5886.00
390.59	5152.00
390.63	4932.00
390.67	5328.00
390.71	5698.00
390.74	6075.00
390.78	6693.00
390.82	6924.00
390.86	6771.00
390.90	6977.00
390.94	6886.00
390.98	7197.00
391.02	6923.00
391.06	6550.00
391.10	6593.00
391.14	6693.00
391.17	7040.00
391.21	7511.00
391.25	7598.00
391.29	7482.00
391.33	7584.00
391.37	7227.00
391.41	6751.00
391.45	6825.00
391.49	6950.00
391.53	7188.00
391.57	7556.00
391.60	7257.00
391.64	6750.00
391.68	6596.00
391.72	6886.00
391.76	7020.00
391.80	6922.00
391.84	7282.00
391.88	6928.00
391.92	6339.00
391.96	6237.00
391.99	6416.00
392.03	6440.00
392.07	5825.00
392.11	5281.00
392.15	5418.00
392.19	5647.00
392.23	6021.00
392.27	6306.00
392.31	6239.00
392.35	5739.00
392.38	6059.00
392.42	6767.00
392.46	6988.00
392.50	6734.00
392.54	6527.00
392.58	6192.00
392.62	5910.00
392.66	5634.00
392.70	5869.00
392.74	5936.00
392.77	5690.00
392.81	5269.00
392.85	4636.00
392.89	4430.00
392.93	4679.00
392.97	4666.00
393.01	4490.00
393.05	4212.00
393.09	3899.00
393.13	3837.00
393.16	3869.00
393.20	3689.00
393.24	3548.00
393.28	3215.00
393.32	2909.00
393.36	2701.00
393.40	2605.00
393.44	2594.00
393.48	2769.00
393.52	2939.00
393.55	3251.00
393.59	3540.00
393.63	3779.00
393.67	3995.00
393.71	4307.00
393.75	4574.00
393.79	4729.00
393.83	4916.00
393.87	5034.00
393.90	5270.00
393.94	5650.00
393.98	5962.00
394.02	6112.00
394.06	6087.00
394.10	6169.00
394.14	5958.00
394.18	5826.00
394.22	5950.00
394.26	6110.00
394.29	6287.00
394.33	6179.00
394.37	5920.00
394.41	5519.00
394.45	5181.00
394.49	5325.00
394.53	5852.00
394.57	6252.00
394.61	6756.00
394.64	7396.00
394.68	7728.00
394.72	7498.00
394.76	7064.00
394.80	6723.00
394.84	6432.00
394.88	6709.00
394.92	6906.00
394.96	6698.00
394.99	7328.00
395.03	7955.00
395.07	7735.00
395.11	7897.00
395.15	8065.00
395.19	7756.00
395.23	7660.00
395.27	7304.00
395.30	6744.00
395.34	6394.00
395.38	6691.00
395.42	7748.00
395.46	8250.00
395.50	8493.00
395.54	8148.00
395.58	7786.00
395.62	7278.00
395.65	7211.00
395.69	6654.00
395.73	6541.00
395.77	7115.00
395.81	7714.00
395.85	7678.00
395.89	7797.00
395.93	7881.00
395.97	8222.00
396.00	8134.00
396.04	7859.00
396.08	7318.00
396.12	6833.00
396.16	6058.00
396.20	5186.00
396.24	5031.00
396.28	5468.00
396.31	5728.00
396.35	5785.00
396.39	5795.00
396.43	5957.00
396.47	5835.00
396.51	5551.00
396.55	5539.00
396.59	5221.00
396.62	4882.00
396.66	4467.00
396.70	4057.00
396.74	3832.00
396.78	3581.00
396.82	3295.00
396.86	3013.00
396.90	2874.00
396.93	2882.00
396.97	3082.00
397.01	3449.00
397.05	3785.00
397.09	4145.00
397.13	4674.00
397.17	4876.00
397.21	5163.00
397.24	5480.00
397.28	5561.00
397.32	5758.00
397.36	5992.00
397.40	5997.00
397.44	5948.00
397.48	6257.00
397.52	6448.00
397.55	6849.00
397.59	7435.00
397.63	7424.00
397.67	7358.00
397.71	7015.00
397.75	7022.00
397.79	7869.00
397.83	8059.00
397.86	8121.00
397.90	8228.00
397.94	8424.00
397.98	8851.00
398.02	8881.00
398.06	8922.00
398.10	9382.00
398.14	9100.00
398.17	8767.00
398.21	8531.00
398.25	8020.00
398.29	8387.00
398.33	8344.00
398.37	8367.00
398.41	8173.00
398.44	7998.00
398.48	8067.00
398.52	8693.00
398.56	9105.00
398.60	8783.00
398.64	9032.00
398.68	8799.00
398.72	8304.00
398.75	8009.00
398.79	8772.00
398.83	9610.00
398.87	10184.00
398.91	9815.00
398.95	9394.00
398.99	9109.00
399.02	8843.00
399.06	8398.00
399.10	8847.00
399.14	9430.00
399.18	9394.00
399.22	9259.00
399.26	9473.00
399.30	9601.00
399.33	9642.00
399.37	9678.00
399.41	9779.00
399.45	9248.00
399.49	8988.00
399.53	8922.00
399.57	9048.00
399.60	8971.00
399.64	8993.00
399.68	8898.00
399.72	8778.00
399.76	8517.00
399.80	8012.00
399.84	8291.00
399.87	8354.00
399.91	9131.00
399.95	9276.00
399.99	10187.00
400.03	10637.00
400.07	10374.00
400.11	9527.00
400.14	9532.00
400.18	9308.00
400.22	9154.00
400.26	9837.00
400.30	10421.00
400.34	10489.00
400.38	10569.00
400.41	10567.00
400.45	10037.00
400.49	9563.00
400.53	8449.00
400.57	6899.00
400.61	6772.00
400.65	8141.00
400.68	8481.00
400.72	8461.00
400.76	8854.00
400.80	9625.00
400.84	10115.00
400.88	10089.00
400.92	10302.00
400.95	9835.00
400.99	9717.00
401.03	9446.00
401.07	9687.00
401.11	9906.00
401.15	9996.00
401.19	10069.00
401.22	10196.00
401.26	10065.00
401.30	9943.00
401.34	10335.00
401.38	10786.00
401.42	9964.00
401.46	9468.00
401.49	9893.00
401.53	9941.00
401.57	10664.00
401.61	10515.00
401.65	10420.00
401.69	10458.00
401.72	9878.00
401.76	8974.00
401.80	8675.00
401.84	9284.00
401.88	9496.00
401.92	10333.00
401.96	10743.00
401.99	11017.00
402.03	10805.00
402.07	9935.00
402.11	9526.00
402.15	10023.00
402.19	10412.00
402.22	9768.00
402.26	9563.00
402.30	10150.00
402.34	10419.00
402.38	10536.00
402.42	10312.00
402.46	9848.00
402.49	9659.00
402.53	9058.00
402.57	9401.00
402.61	10153.00
402.65	10382.00
402.69	10452.00
402.72	10390.00
402.76	10647.00
402.80	10674.00
402.84	10838.00
402.88	10821.00
402.92	10742.00
402.96	10775.00
402.99	10721.00
403.03	9722.00
403.07	8896.00
403.11	7813.00
403.15	7560.00
403.19	8759.00
403.22	9207.00
403.26	9000.00
403.30	8946.00
403.34	7988.00
403.38	7811.00
403.42	8812.00
403.45	9236.00
403.49	8517.00
403.53	8529.00
403.57	9494.00
403.61	9568.00
403.65	9549.00
403.69	10574.00
403.72	10834.00
403.76	10959.00
403.80	11377.00
403.84	11256.00
403.88	11460.00
403.92	11056.00
403.95	10705.00
403.99	10822.00
404.03	10447.00
404.07	9940.00
404.11	9637.00
404.15	9629.00
404.18	9933.00
404.22	10033.00
404.26	11143.00
404.30	11483.00
404.34	11466.00
404.38	10785.00
404.41	9934.00
404.45	8703.00
404.49	8463.00
404.53	7819.00
404.57	7166.00
404.61	6140.00
404.64	5725.00
404.68	6894.00
404.72	8755.00
404.76	9772.00
404.80	10262.00
404.84	10480.00
404.87	10753.00
404.91	10609.00
404.95	10117.00
404.99	10080.00
405.03	10503.00
405.07	11021.00
405.10	11129.00
405.14	11029.00
405.18	10781.00
405.22	10735.00
405.26	10035.00
405.30	9545.00
405.33	9503.00
405.37	10209.00
405.41	10344.00
405.45	10068.00
405.49	9532.00
405.53	9216.00
405.56	8858.00
405.60	9496.00
405.64	9853.00
405.68	10179.00
405.72	9994.00
405.75	10024.00
405.79	8772.00
405.83	8381.00
405.87	8941.00
405.91	9187.00
405.95	9321.00
405.98	9527.00
406.02	9947.00
406.06	10511.00
406.10	10843.00
406.14	10789.00
406.18	10569.00
406.21	10389.00
406.25	9754.00
406.29	9096.00
406.33	8320.00
406.37	7722.00
406.41	6660.00
406.44	6769.00
406.48	8224.00
406.52	9466.00
406.56	10072.00
406.60	9913.00
406.63	10140.00
406.67	9488.00
406.71	8674.00
406.75	8599.00
406.79	8984.00
406.83	9610.00
406.86	9984.00
406.90	10894.00
406.94	11260.00
406.98	11127.00
407.02	11123.00
407.05	11090.00
407.09	10053.00
407.13	9301.00
407.17	8501.00
407.21	7714.00
407.25	7367.00
407.28	8848.00
407.32	10041.00
407.36	10995.00
407.40	11096.00
407.44	10619.00
407.47	10791.00
407.51	10437.00
407.55	9912.00
407.59	9919.00
407.63	10173.00
407.67	9304.00
407.70	8466.00
407.74	8059.00
407.78	8619.00
407.82	8148.00
407.86	8277.00
407.89	9261.00
407.93	9945.00
407.97	9821.00
408.01	9700.00
408.05	10192.00
408.09	10759.00
408.12	11406.00
408.16	11379.00
408.20	11614.00
408.24	11634.00
408.28	11018.00
408.31	10580.00
408.35	10398.00
408.39	10205.00
408.43	9466.00
408.47	9741.00
408.50	9865.00
408.54	9677.00
408.58	9509.00
408.62	10323.00
408.66	10661.00
408.70	10575.00
408.73	11133.00
408.77	11457.00
408.81	11882.00
408.85	11962.00
408.89	12144.00
408.92	12037.00
408.96	11804.00
409.00	11605.00
409.04	11609.00
409.08	11142.00
409.11	11179.00
409.15	11115.00
409.19	11352.00
409.23	10984.00
409.27	10635.00
409.30	9790.00
409.34	10404.00
409.38	11485.00
409.42	12002.00
409.46	11820.00
409.49	11368.00
409.53	10490.00
409.57	10095.00
409.61	10059.00
409.65	9895.00
409.69	9686.00
409.72	10062.00
409.76	10134.00
409.80	10460.00
409.84	10737.00
409.88	10355.00
409.91	10470.00
409.95	10861.00
409.99	11053.00
410.03	10529.00
410.07	9810.00
410.10	9323.00
410.14	8625.00
410.18	8266.00
410.22	7621.00
410.26	8006.00
410.29	9207.00
410.33	9913.00
410.37	10060.00
410.41	10342.00
410.45	10416.00
410.48	10269.00
410.52	10327.00
410.56	10696.00
410.60	10982.00
410.64	11618.00
410.67	11301.00
410.71	10851.00
410.75	11192.00
410.79	11290.00
410.83	10760.00
410.86	10955.00
410.90	10973.00
410.94	10892.00
410.98	10714.00
411.02	10410.00
411.05	10324.00
411.09	10591.00
411.13	10529.00
411.17	10748.00
411.21	11060.00
411.24	10717.00
411.28	10737.00
411.32	10694.00
411.36	10836.00
411.39	11653.00
411.43	11822.00
411.47	11626.00
411.51	11248.00
411.55	11180.00
411.58	11345.00
411.62	11838.00
411.66	11888.00
411.70	11738.00
411.74	11549.00
411.77	11804.00
411.81	11770.00
411.85	10803.00
411.89	10228.00
411.93	9382.00
411.96	9597.00
412.00	10512.00
412.04	11056.00
412.08	10909.00
412.12	11236.00
412.15	11394.00
412.19	10832.00
412.23	10743.00
412.27	10871.00
412.30	10690.00
412.34	10723.00
412.38	10716.00
412.42	10523.00
412.46	10817.00
412.49	11615.00
412.53	11653.00
412.57	11449.00
412.61	10961.00
412.65	10352.00
412.68	10393.00
412.72	10686.00
412.76	10917.00
412.80	10215.00
412.84	9758.00
412.87	10170.00
412.91	10810.00
412.95	11013.00
412.99	10648.00
413.02	10299.00
413.06	10796.00
413.10	11111.00
413.14	11039.00
413.18	10621.00
413.21	9908.00
413.25	8764.00
413.29	8428.00
413.33	9079.00
413.37	9760.00
413.40	10158.00
413.44	9526.00
413.48	9159.00
413.52	9104.00
413.55	10259.00
413.59	11454.00
413.63	11846.00
413.67	11844.00
413.71	11559.00
413.74	10815.00
413.78	10500.00
413.82	11083.00
413.86	11389.00
413.89	11611.00
413.93	11523.00
413.97	11818.00
414.01	11908.00
414.05	11611.00
414.08	11501.00
414.12	11640.00
414.16	11797.00
414.20	11452.00
414.23	10899.00
414.27	10074.00
414.31	9327.00
414.35	9232.00
414.39	8664.00
414.42	7892.00
414.46	8266.00
414.50	9742.00
414.54	10810.00
414.57	10916.00
414.61	10827.00
414.65	10494.00
414.69	10976.00
414.73	11066.00
414.76	11048.00
414.80	10659.00
414.84	10762.00
414.88	11128.00
414.91	11134.00
414.95	10630.00
414.99	9793.00
415.03	9723.00
415.07	10364.00
415.10	10470.00
415.14	10846.00
415.18	10955.00
415.22	10969.00
415.25	10066.00
415.29	10097.00
415.33	10823.00
415.37	10978.00
415.40	10476.00
415.44	9424.00
415.48	9132.00
415.52	9172.00
415.56	9909.00
415.59	10744.00
415.63	10594.00
415.67	10018.00
415.71	9276.00
415.74	9378.00
415.78	10341.00
415.82	10521.00
415.86	10320.00
415.90	10848.00
415.93	10625.00
415.97	10713.00
416.01	11280.00
416.05	11228.00
416.08	10925.00
416.12	10823.00
416.16	10674.00
416.20	10514.00
416.23	10904.00
416.27	11739.00
416.31	11643.00
416.35	11626.00
416.38	11682.00
416.42	11047.00
416.46	11235.00
416.50	11255.00
416.54	11163.00
416.57	11161.00
416.61	11086.00
416.65	11335.00
416.69	11470.00
416.72	10872.00
416.76	10027.00
416.80	9514.00
416.84	9777.00
416.87	10524.00
416.91	11143.00
416.95	11195.00
416.99	11118.00
417.02	10940.00
417.06	11058.00
417.10	11286.00
417.14	10592.00
417.18	10014.00
417.21	9905.00
417.25	8969.00
417.29	8637.00
417.33	8513.00
417.36	8913.00
417.40	9129.00
417.44	9484.00
417.48	9849.00
417.51	10245.00
417.55	9747.00
417.59	9779.00
417.63	9840.00
417.66	10164.00
417.70	10052.00
417.74	9799.00
417.78	9703.00
417.81	9428.00
417.85	9255.00
417.89	9836.00
417.93	10356.00
417.96	10410.00
418.00	10356.00
418.04	10853.00
418.08	10976.00
418.11	10644.00
418.15	10020.00
418.19	9777.00
418.23	9275.00
418.26	9222.00
418.30	9747.00
418.34	9925.00
418.38	9936.00
418.41	10068.00
418.45	9916.00
418.49	10313.00
418.53	10740.00
418.57	10862.00
418.60	11131.00
418.64	10716.00
418.68	10060.00
418.72	9194.00
418.75	8583.00
418.79	8432.00
418.83	8532.00
418.87	9411.00
418.90	10092.00
418.94	10236.00
418.98	10350.00
419.02	10874.00
419.05	10924.00
419.09	10775.00
419.13	10350.00
419.17	9886.00
419.20	9299.00
419.24	9597.00
419.28	10503.00
419.32	11113.00
419.35	11544.00
419.39	11704.00
419.43	11143.00
419.47	11077.00
419.50	10693.00
419.54	9823.00
419.58	9297.00
419.62	9080.00
419.65	9530.00
419.69	9558.00
419.73	9513.00
419.76	9545.00
419.80	9645.00
419.84	9221.00
419.88	8275.00
419.91	8137.00
419.95	8704.00
419.99	9430.00
420.03	9992.00
420.06	9661.00
420.10	9569.00
420.14	9105.00
420.18	9117.00
420.21	9056.00
420.25	8446.00
420.29	8572.00
420.33	9533.00
420.36	10145.00
420.40	10113.00
420.44	10093.00
420.48	10112.00
420.51	10218.00
420.55	10230.00
420.59	10434.00
420.63	10577.00
420.66	10838.00
420.70	10659.00
420.74	10526.00
420.78	10534.00
420.81	10891.00
420.85	11293.00
420.89	11259.00
420.92	10647.00
420.96	10538.00
421.00	10492.00
421.04	9995.00
421.07	10010.00
421.11	9940.00
421.15	10429.00
421.19	10953.00
421.22	11082.00
421.26	11154.00
421.30	11209.00
421.34	10968.00
421.37	10869.00
421.41	10723.00
421.45	10541.00
421.49	10420.00
421.52	10164.00
421.56	9479.00
421.60	8533.00
421.63	8386.00
421.67	8792.00
421.71	9630.00
421.75	10370.00
421.78	10316.00
421.82	10205.00
421.86	10680.00
421.90	10391.00
421.93	10390.00
421.97	10429.00
422.01	10199.00
422.05	10914.00
422.08	11062.00
422.12	11282.00
422.16	11444.00
422.19	11314.00
422.23	10733.00
422.27	10127.00
422.31	10132.00
422.34	10065.00
422.38	9726.00
422.42	9608.00
422.46	9406.00
422.49	8885.00
422.53	8813.00
422.57	8607.00
422.61	7869.00
422.64	7002.00
422.68	6401.00
422.72	5846.00
422.75	6249.00
422.79	7020.00
422.83	8552.00
422.87	9655.00
422.90	10664.00
422.94	10759.00
422.98	10726.00
423.02	10065.00
423.05	10389.00
423.09	10628.00
423.13	10976.00
423.16	11035.00
423.20	11047.00
423.24	10835.00
423.28	10545.00
423.31	10060.00
423.35	9309.00
423.39	9295.00
423.42	9528.00
423.46	10173.00
423.50	10840.00
423.54	10421.00
423.57	9744.00
423.61	8789.00
423.65	8130.00
423.69	8344.00
423.72	9250.00
423.76	9376.00
423.80	9795.00
423.83	9927.00
423.87	9931.00
423.91	9531.00
423.95	9638.00
423.98	9526.00
424.02	9452.00
424.06	9484.00
424.09	9939.00
424.13	10291.00
424.17	10845.00
424.21	10907.00
424.24	10746.00
424.28	9841.00
424.32	9580.00
424.36	9685.00
424.39	9860.00
424.43	10268.00
424.47	10866.00
424.50	11543.00
424.54	11171.00
424.58	10802.00
424.62	10554.00
424.65	10541.00
424.69	10182.00
424.73	9918.00
424.76	9458.00
424.80	9024.00
424.84	9264.00
424.88	9034.00
424.91	9290.00
424.95	9473.00
424.99	9306.00
425.02	8673.00
425.06	8250.00
425.10	8277.00
425.14	8916.00
425.17	9854.00
425.21	10796.00
425.25	10812.00
425.28	10798.00
425.32	10696.00
425.36	10159.00
425.40	9825.00
425.43	9421.00
425.47	8644.00
425.51	8645.00
425.54	8822.00
425.58	9360.00
425.62	9664.00
425.66	9959.00
425.69	10722.00
425.73	11394.00
425.77	11203.00
425.80	10898.00
425.84	10544.00
425.88	9861.00
425.91	9212.00
425.95	9018.00
425.99	9172.00
426.03	8686.00
426.06	7970.00
426.10	7542.00
426.14	7913.00
426.17	8811.00
426.21	9395.00
426.25	9794.00
426.29	10648.00
426.32	10902.00
426.36	11041.00
426.40	10962.00
426.43	10650.00
426.47	10530.00
426.51	10290.00
426.55	10619.00
426.58	10962.00
426.62	10956.00
426.66	10924.00
426.69	11229.00
426.73	10204.00
426.77	9859.00
426.80	9778.00
426.84	9750.00
426.88	9839.00
426.92	9977.00
426.95	9991.00
426.99	9698.00
427.03	9193.00
427.06	8950.00
427.10	8769.00
427.14	7908.00
427.17	7077.00
427.21	6856.00
427.25	7453.00
427.29	8219.00
427.32	9057.00
427.36	9362.00
427.40	8941.00
427.43	8442.00
427.47	8425.00
427.51	8198.00
427.54	8102.00
427.58	8570.00
427.62	9200.00
427.66	10001.00
427.69	10372.00
427.73	10345.00
427.77	10272.00
427.80	10576.00
427.84	10867.00
427.88	10800.00
427.91	10768.00
427.95	10166.00
427.99	9656.00
428.03	8958.00
428.06	8672.00
428.10	8798.00
428.14	9264.00
428.17	9526.00
428.21	9925.00
428.25	9555.00
428.28	9650.00
428.32	9274.00
428.36	9793.00
428.39	10645.00
428.43	10715.00
428.47	10249.00
428.51	9549.00
428.54	9039.00
428.58	8856.00
428.62	8791.00
428.65	8672.00
428.69	8914.00
428.73	9378.00
428.76	9607.00
428.80	9846.00
428.84	9262.00
428.87	9241.00
428.91	8961.00
428.95	8134.00
428.99	7687.00
429.02	7400.00
429.06	7693.00
429.10	8241.00
429.13	8522.00
429.17	8515.00
429.21	9057.00
429.24	9563.00
429.28	10023.00
429.32	10451.00
429.35	9942.00
429.39	9680.00
429.43	9342.00
429.47	8634.00
429.50	8773.00
429.54	8869.00
429.58	9299.00
429.61	9511.00
429.65	9348.00
429.69	9175.00
429.72	8388.00
429.76	8178.00
429.80	8357.00
429.83	8272.00
429.87	7914.00
429.91	7475.00
429.94	6616.00
429.98	6269.00
430.02	6252.00
430.05	6445.00
430.09	6936.00
430.13	7296.00
430.17	7348.00
430.20	7591.00
430.24	7480.00
430.28	7098.00
430.31	6858.00
430.35	6977.00
430.39	7352.00
430.42	7576.00
430.46	7664.00
430.50	7473.00
430.53	7440.00
430.57	7377.00
430.61	7454.00
430.64	7537.00
430.68	7827.00
430.72	7577.00
430.75	7185.00
430.79	6634.00
430.83	6211.00
430.86	5916.00
430.90	6313.00
430.94	6599.00
430.98	6716.00
431.01	6816.00
431.05	7135.00
431.09	6988.00
431.12	7324.00
431.16	7175.00
431.20	7264.00
431.23	7346.00
431.27	7808.00
431.31	7972.00
431.34	8272.00
431.38	8938.00
431.42	9047.00
431.45	8713.00
431.49	8945.00
431.53	9111.00
431.56	9665.00
431.60	10491.00
431.64	11234.00
431.67	11456.00
431.71	11723.00
431.75	11737.00
431.78	11626.00
431.82	11373.00
431.86	11425.00
431.89	11170.00
431.93	11177.00
431.97	11637.00
432.00	11340.00
432.04	10939.00
432.08	11032.00
432.11	10362.00
432.15	10561.00
432.19	10854.00
432.22	10874.00
432.26	10588.00
432.30	10073.00
432.33	9358.00
432.37	8458.00
432.41	8038.00
432.44	7789.00
432.48	7662.00
432.52	7486.00
432.55	7014.00
432.59	6962.00
432.63	7090.00
432.66	7764.00
432.70	8656.00
432.74	9198.00
432.77	9964.00
432.81	10453.00
432.85	10823.00
432.88	10923.00
432.92	11344.00
432.96	11193.00
432.99	10920.00
433.03	10584.00
433.07	10505.00
433.10	10356.00
433.14	10259.00
433.18	10708.00
433.21	10885.00
433.25	11042.00
433.29	10987.00
433.32	10934.00
433.36	10932.00
433.40	10933.00
433.43	10928.00
433.47	11120.00
433.51	11464.00
433.54	11409.00
433.58	11581.00
433.62	11320.00
433.65	11232.00
433.69	10606.00
433.73	9832.00
433.76	9371.00
433.80	8794.00
433.84	8719.00
433.87	8867.00
433.91	8847.00
433.95	8729.00
433.98	8178.00
434.02	7710.00
434.06	7385.00
434.09	7298.00
434.13	7897.00
434.17	8704.00
434.20	9509.00
434.24	9968.00
434.28	10354.00
434.31	10286.00
434.35	10014.00
434.39	9558.00
434.42	9659.00
434.46	9858.00
434.50	10277.00
434.53	10544.00
434.57	11021.00
434.61	10696.00
434.64	10794.00
434.68	10658.00
434.71	10439.00
434.75	10163.00
434.79	10300.00
434.82	10650.00
434.86	10732.00
434.90	11229.00
434.93	11258.00
434.97	11680.00
435.01	11478.00
435.04	11275.00
435.08	10347.00
435.12	9489.00
435.15	8727.00
435.19	8492.00
435.23	8128.00
435.26	8240.00
435.30	8745.00
435.34	9265.00
435.37	9996.00
435.41	10206.00
435.45	10401.00
435.48	9974.00
435.52	9695.00
435.55	9672.00
435.59	9873.00
435.63	10042.00
435.66	10125.00
435.70	10483.00
435.74	10694.00
435.77	10835.00
435.81	10410.00
435.85	10254.00
435.88	9805.00
435.92	9602.00
435.96	9629.00
435.99	9473.00
436.03	9617.00
436.07	10256.00
436.10	10627.00
436.14	10973.00
436.18	11091.00
436.21	11083.00
436.25	10824.00
436.28	10290.00
436.32	10138.00
436.36	10182.00
436.39	10352.00
436.43	10893.00
436.47	11091.00
436.50	11416.00
436.54	11370.00
436.58	11491.00
436.61	10919.00
436.65	10788.00
436.69	10246.00
436.72	9854.00
436.76	9611.00
436.79	9557.00
436.83	9860.00
436.87	10240.00
436.90	10325.00
436.94	10227.00
436.98	10194.00
437.01	10076.00
437.05	9985.00
437.09	9989.00
437.12	9746.00
437.16	9912.00
437.20	9976.00
437.23	10197.00
437.27	10233.00
437.30	9849.00
437.34	9601.00
437.38	9542.00
437.41	8973.00
437.45	8760.00
437.49	8621.00
437.52	8475.00
437.56	8487.00
437.60	8791.00
437.63	9067.00
437.67	9290.00
437.70	9681.00
437.74	9918.00
437.78	9987.00
437.81	10073.00
437.85	10110.00
437.89	10058.00
437.92	10275.00
437.96	10027.00
438.00	9760.00
438.03	9851.00
438.07	9693.00
438.10	9758.00
438.14	9739.00
438.18	9915.00
438.21	9418.00
438.25	8742.00
438.29	7980.00
438.32	7045.00
438.36	6382.00
438.39	6147.00
438.43	6247.00
438.47	6615.00
438.50	7158.00
438.54	7705.00
438.58	8449.00
438.61	9025.00
438.65	9421.00
438.69	9586.00
438.72	9326.00
438.76	9243.00
438.79	9043.00
438.83	9004.00
438.87	9161.00
438.90	9037.00
438.94	8994.00
438.98	8880.00
439.01	8783.00
439.05	8836.00
439.08	8974.00
439.12	8985.00
439.16	9233.00
439.19	9366.00
439.23	9630.00
439.27	9650.00
439.30	9745.00
439.34	9777.00
439.37	9702.00
439.41	9520.00
439.45	9179.00
439.48	9060.00
439.52	8960.00
439.56	8949.00
439.59	9385.00
439.63	9676.00
439.66	9872.00
439.70	10434.00
439.74	10198.00
439.77	10317.00
439.81	10288.00
439.85	10443.00
439.88	10096.00
439.92	9740.00
439.95	9728.00
439.99	9299.00
440.03	9149.00
440.06	8892.00
440.10	8441.00
440.14	8948.00
440.17	9346.00
440.21	9869.00
440.24	10139.00
440.28	10072.00
440.32	10044.00
440.35	9692.00
440.39	9112.00
440.43	8082.00
440.46	7629.00
440.50	7526.00
440.53	7855.00
440.57	8409.00
440.61	9220.00
440.64	9662.00
440.68	9730.00
440.71	9798.00
440.75	9460.00
440.79	9409.00
440.82	8960.00
440.86	9056.00
440.90	9397.00
440.93	9795.00
440.97	10139.00
441.00	10551.00
441.04	10528.00
441.08	10669.00
441.11	10832.00
441.15	10832.00
441.18	10834.00
441.22	11166.00
441.26	11269.00
441.29	11474.00
441.33	11293.00
441.37	11216.00
441.40	10876.00
441.44	10084.00
441.47	9074.00
441.51	8943.00
441.55	8878.00
441.58	9133.00
441.62	9537.00
441.65	10131.00
441.69	10120.00
441.73	10184.00
441.76	10231.00
441.80	10330.00
441.83	10649.00
441.87	10885.00
441.91	11050.00
441.94	11429.00
441.98	11747.00
442.02	11748.00
442.05	11715.00
442.09	11430.00
442.12	11294.00
442.16	10782.00
442.20	10410.00
442.23	10182.00
442.27	10206.00
442.30	10222.00
442.34	10283.00
442.38	10582.00
442.41	10829.00
442.45	10945.00
442.48	10724.00
442.52	10640.00
442.56	10462.00
442.59	10637.00
442.63	10868.00
442.66	10441.00
442.70	10283.00
442.74	10458.00
442.77	10731.00
442.81	11050.00
442.84	11440.00
442.88	11469.00
442.92	11505.00
442.95	11056.00
442.99	10656.00
443.02	10183.00
443.06	10168.00
443.10	10426.00
443.13	10625.00
443.17	10664.00
443.20	10968.00
443.24	11170.00
443.28	10972.00
443.31	10670.00
443.35	10858.00
443.38	10491.00
443.42	10396.00
443.46	9899.00
443.49	9482.00
443.53	9241.00
443.56	9533.00
443.60	9869.00
443.64	10257.00
443.67	10800.00
443.71	10911.00
443.74	11296.00
443.78	11647.00
443.82	11704.00
443.85	11987.00
443.89	12001.00
443.92	11850.00
443.96	11845.00
444.00	11779.00
444.03	11289.00
444.07	10992.00
444.10	10996.00
444.14	11112.00
444.18	10524.00
444.21	10210.00
444.25	10045.00
444.28	10038.00
444.32	10013.00
444.36	10091.00
444.39	10295.00
444.43	10710.00
444.46	11450.00
444.50	11506.00
444.54	11959.00
444.57	12108.00
444.61	12161.00
444.64	11991.00
444.68	11454.00
444.72	11024.00
444.75	11018.00
444.79	11237.00
444.82	11381.00
444.86	11648.00
444.90	11923.00
444.93	11822.00
444.97	11776.00
445.00	11533.00
445.04	11475.00
445.07	11316.00
445.11	11310.00
445.15	11740.00
445.18	11777.00
445.22	11786.00
445.25	11622.00
445.29	11997.00
445.33	11665.00
445.36	11420.00
445.40	10912.00
445.43	10426.00
445.47	9894.00
445.51	9582.00
445.54	9766.00
445.58	10091.00
445.61	10266.00
445.65	10470.00
445.68	10763.00
445.72	10676.00
445.76	10685.00
445.79	10788.00
445.83	10640.00
445.86	10257.00
445.90	10411.00
445.94	10599.00
445.97	10833.00
446.01	11020.00
446.04	11042.00
446.08	10719.00
446.11	10594.00
446.15	10002.00
446.19	10165.00
446.22	10381.00
446.26	10601.00
446.29	10861.00
446.33	11744.00
446.37	11976.00
446.40	11659.00
446.44	11520.00
446.47	11588.00
446.51	11554.00
446.54	11930.00
446.58	11789.00
446.62	11473.00
446.65	11352.00
446.69	11655.00
446.72	11886.00
446.76	12054.00
446.79	11681.00
446.83	11648.00
446.87	11489.00
446.90	11020.00
446.94	11184.00
446.97	11073.00
447.01	11114.00
447.05	11473.00
447.08	11701.00
447.12	11990.00
447.15	12340.00
447.19	12266.00
447.22	12371.00
447.26	12579.00
447.30	12602.00
447.33	12892.00
447.37	13078.00
447.40	13123.00
447.44	12705.00
447.47	12952.00
447.51	12775.00
447.55	12249.00
447.58	12539.00
447.62	12334.00
447.65	12569.00
447.69	13110.00
447.72	13090.00
447.76	13216.00
447.80	13283.00
447.83	13152.00
447.87	13324.00
447.90	12836.00
447.94	12336.00
447.97	12022.00
448.01	11775.00
448.05	11665.00
448.08	11469.00
448.12	11356.00
448.15	11004.00
448.19	10830.00
448.22	10914.00
448.26	11516.00
448.30	12007.00
448.33	12275.00
448.37	12244.00
448.40	12731.00
448.44	12926.00
448.47	13179.00
448.51	12933.00
448.55	13250.00
448.58	13213.00
448.62	13174.00
448.65	13258.00
448.69	13029.00
448.72	13088.00
448.76	12935.00
448.79	12834.00
448.83	12418.00
448.87	12256.00
448.90	11925.00
448.94	11595.00
448.97	11859.00
449.01	11843.00
449.04	12056.00
449.08	12147.00
449.12	12529.00
449.15	12628.00
449.19	12852.00
449.22	13043.00
449.26	13338.00
449.29	13529.00
449.33	13328.00
449.36	12664.00
449.40	12239.00
449.44	12034.00
449.47	12130.00
449.51	11993.00
449.54	12240.00
449.58	12303.00
449.61	12222.00
449.65	12308.00
449.69	12560.00
449.72	12831.00
449.76	13382.00
449.79	13462.00
449.83	13243.00
449.86	13354.00
449.90	13502.00
449.93	13677.00
449.97	13762.00
450.01	13726.00
450.04	13492.00
450.08	12888.00
450.11	12846.00
450.15	12793.00
450.18	12783.00
450.22	13210.00
450.25	13861.00
450.29	13809.00
450.33	14045.00
450.36	14409.00
450.40	14646.00
450.43	14458.00
450.47	14452.00
450.50	14549.00
450.54	14674.00
450.57	14353.00
450.61	14352.00
450.65	14344.00
450.68	14432.00
450.72	14347.00
450.75	14140.00
450.79	13889.00
450.82	14187.00
450.86	13996.00
450.89	14377.00
450.93	14098.00
450.97	14269.00
451.00	14659.00
451.04	14861.00
451.07	14803.00
451.11	14538.00
451.14	14645.00
451.18	14329.00
451.21	14036.00
451.25	14026.00
451.28	14264.00
451.32	14101.00
451.36	13846.00
451.39	13544.00
451.43	13633.00
451.46	13463.00
451.50	13384.00
451.53	13609.00
451.57	14089.00
451.60	14330.00
451.64	14764.00
451.67	14284.00
451.71	13996.00
451.75	13641.00
451.78	13422.00
451.82	13627.00
451.85	14369.00
451.89	14530.00
451.92	14586.00
451.96	14276.00
451.99	14297.00
452.03	14676.00
452.06	15057.00
452.10	15090.00
452.14	15505.00
452.17	14975.00
452.21	14590.00
452.24	14333.00
452.28	14208.00
452.31	14281.00
452.35	14599.00
452.38	14593.00
452.42	14542.00
452.45	14073.00
452.49	14372.00
452.53	14543.00
452.56	14333.00
452.60	13755.00
452.63	13342.00
452.67	13352.00
452.70	13280.00
452.74	13383.00
452.77	13377.00
452.81	12716.00
452.84	12808.00
452.88	12820.00
452.91	12939.00
452.95	13629.00
452.99	13736.00
453.02	13516.00
453.06	13016.00
453.09	13198.00
453.13	14059.00
453.16	14396.00
453.20	14779.00
453.23	14615.00
453.27	14443.00
453.30	14342.00
453.34	13797.00
453.37	13986.00
453.41	13662.00
453.45	13688.00
453.48	13762.00
453.52	12947.00
453.55	12753.00
453.59	13553.00
453.62	14251.00
453.66	15032.00
453.69	15394.00
453.73	15672.00
453.76	15748.00
453.80	15888.00
453.83	15924.00
453.87	15922.00
453.90	15963.00
453.94	15962.00
453.98	15922.00
454.01	15820.00
454.05	15184.00
454.08	15150.00
454.12	15127.00
454.15	15342.00
454.19	15396.00
454.22	15590.00
454.26	15778.00
454.29	15824.00
454.33	15904.00
454.36	15926.00
454.40	15718.00
454.43	15843.00
454.47	15525.00
454.50	15585.00
454.54	15331.00
454.57	15536.00
454.61	15715.00
454.65	15545.00
454.68	15762.00
454.72	15613.00
454.75	15770.00
454.79	15763.00
454.82	15704.00
454.86	15639.00
454.89	14561.00
454.93	14147.00
454.96	14664.00
455.00	15027.00
455.03	15209.00
455.07	15533.00
455.10	15711.00
455.14	15820.00
455.17	15773.00
455.21	15880.00
455.24	15816.00
455.28	15995.00
455.32	15974.00
455.35	15999.00
455.39	15738.00
455.42	15857.00
455.46	15630.00
455.49	15733.00
455.53	15442.00
455.56	15422.00
455.60	15488.00
455.63	15723.00
455.67	15903.00
455.70	16005.00
455.74	16155.00
455.77	16202.00
455.81	16316.00
455.84	16302.00
455.88	16383.00
455.91	16383.00
455.95	16383.00
455.98	16383.00
456.02	16383.00
456.05	16383.00
456.09	16383.00
456.12	16383.00
456.16	16383.00
456.19	16383.00
456.23	16383.00
456.27	16383.00
456.30	16383.00
456.34	16383.00
456.37	16383.00
456.41	16383.00
456.44	16383.00
456.48	16383.00
456.51	16383.00
456.55	16383.00
456.58	16383.00
456.62	16383.00
456.65	16383.00
456.69	16383.00
456.72	16383.00
456.76	16383.00
456.79	16383.00
456.83	16383.00
456.86	16383.00
456.90	16383.00
456.93	16383.00
456.97	16383.00
457.00	16383.00
457.04	16383.00
457.07	16383.00
457.11	16383.00
457.14	16383.00
457.18	16383.00
457.21	16383.00
457.25	16383.00
457.28	16383.00
457.32	16383.00
457.35	16383.00
457.39	16383.00
457.42	16383.00
457.46	16383.00
457.49	16383.00
457.53	16383.00
457.56	16383.00
457.60	16383.00
457.63	16383.00
457.67	16383.00
457.70	16383.00
457.74	16383.00
457.77	16383.00
457.81	16383.00
457.84	16383.00
457.88	16383.00
457.92	16383.00
457.95	16383.00
457.99	16383.00
458.02	16383.00
458.06	16383.00
458.09	16383.00
458.13	16383.00
458.16	16383.00
458.20	16383.00
458.23	16383.00
458.27	16383.00
458.30	16383.00
458.34	16383.00
458.37	16383.00
458.41	16383.00
458.44	16383.00
458.48	16383.00
458.51	16383.00
458.55	16383.00
458.58	16383.00
458.62	16383.00
458.65	16383.00
458.69	16383.00
458.72	16383.00
458.76	16383.00
458.79	16383.00
458.83	16383.00
458.86	16383.00
458.90	16383.00
458.93	16383.00
458.97	16383.00
459.00	16383.00
459.04	16383.00
459.07	16383.00
459.11	16383.00
459.14	16383.00
459.18	16383.00
459.21	16383.00
459.25	16383.00
459.28	16383.00
459.31	16383.00
459.35	16383.00
459.38	16383.00
459.42	16383.00
459.45	16383.00
459.49	16383.00
459.52	16383.00
459.56	16383.00
459.59	16383.00
459.63	16383.00
459.66	16383.00
459.70	16383.00
459.73	16383.00
459.77	16383.00
459.80	16383.00
459.84	16383.00
459.87	16383.00
459.91	16383.00
459.94	16383.00
459.98	16383.00
460.01	16383.00
460.05	16383.00
460.08	16383.00
460.12	16383.00
460.15	16383.00
460.19	16383.00
460.22	16383.00
460.26	16383.00
460.29	16383.00
460.33	16383.00
460.36	16383.00
460.40	16383.00
460.43	16383.00
460.47	16383.00
460.50	16383.00
460.54	16383.00
460.57	16383.00
460.61	16383.00
460.64	16383.00
460.68	16383.00
460.71	16383.00
460.75	16383.00
460.78	16383.00
460.82	16383.00
460.85	16383.00
460.89	16383.00
460.92	16383.00
460.96	16383.00
460.99	16383.00
461.02	16383.00
461.06	16383.00
461.09	16383.00
461.13	16383.00
461.16	16383.00
461.20	16383.00
461.23	16383.00
461.27	16383.00
461.30	16383.00
461.34	16383.00
461.37	16383.00
461.41	16383.00
461.44	16383.00
461.48	16383.00
461.51	16383.00
461.55	16383.00
461.58	16383.00
461.62	16383.00
461.65	16383.00
461.69	16383.00
461.72	16383.00
461.76	16383.00
461.79	16383.00
461.83	16383.00
461.86	16383.00
461.89	16383.00
461.93	16383.00
461.96	16383.00
462.00	16383.00
462.03	16383.00
462.07	16383.00
462.10	16383.00
462.14	16383.00
462.17	16383.00
462.21	16383.00
462.24	16383.00
462.28	16383.00
462.31	16383.00
462.35	16383.00
462.38	16383.00
462.42	16383.00
462.45	16383.00
462.49	16383.00
462.52	16383.00
462.56	16383.00
462.59	16383.00
462.62	16383.00
462.66	16383.00
462.69	16383.00
462.73	16383.00
462.76	16383.00
462.80	16383.00
462.83	16383.00
462.87	16383.00
462.90	16383.00
462.94	16383.00
462.97	16383.00
463.01	16383.00
463.04	16383.00
463.08	16383.00
463.11	16383.00
463.15	16383.00
463.18	16383.00
463.21	16383.00
463.25	16383.00
463.28	16383.00
463.32	16383.00
463.35	16383.00
463.39	16383.00
463.42	16383.00
463.46	16383.00
463.49	16383.00
463.53	16383.00
463.56	16383.00
463.60	16383.00
463.63	16383.00
463.67	16383.00
463.70	16383.00
463.73	16383.00
463.77	16383.00
463.80	16383.00
463.84	16383.00
463.87	16383.00
463.91	16383.00
463.94	16383.00
463.98	16383.00
464.01	16383.00
464.05	16383.00
464.08	16383.00
464.12	16383.00
464.15	16383.00
464.18	16383.00
464.22	16383.00
464.25	16383.00
464.29	16383.00
464.32	16383.00
464.36	16383.00
464.39	16383.00
464.43	16383.00
464.46	16383.00
464.50	16383.00
464.53	16383.00
464.57	16383.00
464.60	16383.00
464.63	16383.00
464.67	16383.00
464.70	16383.00
464.74	16383.00
464.77	16383.00
464.81	16383.00
464.84	16383.00
464.88	16383.00
464.91	16383.00
464.95	16383.00
464.98	16383.00
465.02	16383.00
465.05	16383.00
465.08	16383.00
465.12	16383.00
465.15	16383.00
465.19	16383.00
465.22	16383.00
465.26	16383.00
465.29	16383.00
465.33	16383.00
465.36	16383.00
465.40	16383.00
465.43	16383.00
465.46	16383.00
465.50	16383.00
465.53	16383.00
465.57	16383.00
465.60	16383.00
465.64	16383.00
465.67	16383.00
465.71	16383.00
465.74	16383.00
465.77	16383.00
465.81	16383.00
465.84	16383.00
465.88	16383.00
465.91	16383.00
465.95	16383.00
465.98	16383.00
466.02	16383.00
466.05	16383.00
466.09	16383.00
466.12	16383.00
466.15	16383.00
466.19	16383.00
466.22	16383.00
466.26	16383.00
466.29	16383.00
466.33	16383.00
466.36	16383.00
466.40	16383.00
466.43	16383.00
466.46	16383.00
466.50	16383.00
466.53	16383.00
466.57	16383.00
466.60	16383.00
466.64	16383.00
466.67	16383.00
466.71	16383.00
466.74	16383.00
466.77	16383.00
466.81	16383.00
466.84	16383.00
466.88	16383.00
466.91	16383.00
466.95	16383.00
466.98	16383.00
467.02	16383.00
467.05	16383.00
467.08	16383.00
467.12	16383.00
467.15	16383.00
467.19	16383.00
467.22	16383.00
467.26	16383.00
467.29	16383.00
467.33	16383.00
467.36	16383.00
467.39	16383.00
467.43	16383.00
467.46	16383.00
467.50	16383.00
467.53	16383.00
467.57	16383.00
467.60	16383.00
467.63	16383.00
467.67	16383.00
467.70	16383.00
467.74	16383.00
467.77	16383.00
467.81	16383.00
467.84	16383.00
467.88	16383.00
467.91	16383.00
467.94	16383.00
467.98	16383.00
468.01	16383.00
468.05	16383.00
468.08	16383.00
468.12	16383.00
468.15	16383.00
468.18	16383.00
468.22	16383.00
468.25	16383.00
468.29	16383.00
468.32	16383.00
468.36	16383.00
468.39	16383.00
468.42	16383.00
468.46	16383.00
468.49	16383.00
468.53	16383.00
468.56	16383.00
468.60	16383.00
468.63	16383.00
468.67	16383.00
468.70	16383.00
468.73	16383.00
468.77	16383.00
468.80	16383.00
468.84	16383.00
468.87	16383.00
468.91	16383.00
468.94	16383.00
468.97	16383.00
469.01	16383.00
469.04	16383.00
469.08	16383.00
469.11	16383.00
469.15	16383.00
469.18	16383.00
469.21	16383.00
469.25	16383.00
469.28	16383.00
469.32	16383.00
469.35	16383.00
469.38	16383.00
469.42	16383.00
469.45	16383.00
469.49	16383.00
469.52	16383.00
469.56	16383.00
469.59	16383.00
469.62	16383.00
469.66	16383.00
469.69	16383.00
469.73	16383.00
469.76	16383.00
469.80	16383.00
469.83	16383.00
469.86	16383.00
469.90	16383.00
469.93	16383.00
469.97	16383.00
470.00	16383.00
470.04	16383.00
470.07	16383.00
470.10	16383.00
470.14	16383.00
470.17	16383.00
470.21	16383.00
470.24	16383.00
470.27	16383.00
470.31	16383.00
470.34	16383.00
470.38	16383.00
470.41	16383.00
470.45	16383.00
470.48	16383.00
470.51	16383.00
470.55	16383.00
470.58	16383.00
470.62	16383.00
470.65	16383.00
470.68	16383.00
470.72	16383.00
470.75	16383.00
470.79	16383.00
470.82	16383.00
470.86	16383.00
470.89	16383.00
470.92	16383.00
470.96	16383.00
470.99	16383.00
471.03	16383.00
471.06	16383.00
471.09	16383.00
471.13	16383.00
471.16	16383.00
471.20	16383.00
471.23	16383.00
471.27	16383.00
471.30	16383.00
471.33	16383.00
471.37	16383.00
471.40	16383.00
471.44	16383.00
471.47	16383.00
471.50	16383.00
471.54	16383.00
471.57	16383.00
471.61	16383.00
471.64	16383.00
471.67	16383.00
471.71	16383.00
471.74	16383.00
471.78	16383.00
471.81	16383.00
471.85	16383.00
471.88	16383.00
471.91	16383.00
471.95	16383.00
471.98	16383.00
472.02	16383.00
472.05	16383.00
472.08	16383.00
472.12	16383.00
472.15	16383.00
472.19	16383.00
472.22	16383.00
472.25	16383.00
472.29	16383.00
472.32	16383.00
472.36	16383.00
472.39	16383.00
472.42	16383.00
472.46	16383.00
472.49	16383.00
472.53	16383.00
472.56	16383.00
472.59	16383.00
472.63	16383.00
472.66	16383.00
472.70	16383.00
472.73	16383.00
472.76	16383.00
472.80	16383.00
472.83	16383.00
472.87	16383.00
472.90	16383.00
472.93	16383.00
472.97	16383.00
473.00	16383.00
473.04	16383.00
473.07	16383.00
473.10	16383.00
473.14	16383.00
473.17	16383.00
473.21	16383.00
473.24	16383.00
473.27	16383.00
473.31	16383.00
473.34	16383.00
473.38	16383.00
473.41	16383.00
473.44	16383.00
473.48	16383.00
473.51	16383.00
473.55	16383.00
473.58	16383.00
473.61	16383.00
473.65	16383.00
473.68	16383.00
473.72	16383.00
473.75	16383.00
473.78	16383.00
473.82	16383.00
473.85	16383.00
473.89	16383.00
473.92	16383.00
473.95	16383.00
473.99	16383.00
474.02	16383.00
474.06	16383.00
474.09	16383.00
474.12	16383.00
474.16	16383.00
474.19	16383.00
474.22	16383.00
474.26	16383.00
474.29	16383.00
474.33	16383.00
474.36	16383.00
474.39	16383.00
474.43	16383.00
474.46	16383.00
474.50	16383.00
474.53	16383.00
474.56	16383.00
474.60	16383.00
474.63	16383.00
474.67	16383.00
474.70	16383.00
474.73	16383.00
474.77	16383.00
474.80	16383.00
474.83	16383.00
474.87	16383.00
474.90	16383.00
474.94	16383.00
474.97	16383.00
475.00	16383.00
475.04	16383.00
475.07	16383.00
475.11	16383.00
475.14	16383.00
475.17	16383.00
475.21	16383.00
475.24	16383.00
475.28	16383.00
475.31	16383.00
475.34	16383.00
475.38	16383.00
475.41	16383.00
475.44	16383.00
475.48	16383.00
475.51	16383.00
475.55	16383.00
475.58	16383.00
475.61	16383.00
475.65	16383.00
475.68	16383.00
475.71	16383.00
475.75	16383.00
475.78	16383.00
475.82	16383.00
475.85	16383.00
475.88	16383.00
475.92	16383.00
475.95	16383.00
475.99	16383.00
476.02	16383.00
476.05	16383.00
476.09	16383.00
476.12	16383.00
476.15	16383.00
476.19	16383.00
476.22	16383.00
476.26	16383.00
476.29	16383.00
476.32	16383.00
476.36	16383.00
476.39	16383.00
476.42	16383.00
476.46	16383.00
476.49	16383.00
476.53	16383.00
476.56	16383.00
476.59	16383.00
476.63	16383.00
476.66	16383.00
476.69	16383.00
476.73	16383.00
476.76	16383.00
476.80	16383.00
476.83	16383.00
476.86	16383.00
476.90	16383.00
476.93	16383.00
476.96	16383.00
477.00	16383.00
477.03	16383.00
477.06	16383.00
477.10	16383.00
477.13	16383.00
477.17	16383.00
477.20	16383.00
477.23	16383.00
477.27	16383.00
477.30	16383.00
477.33	16383.00
477.37	16383.00
477.40	16383.00
477.44	16383.00
477.47	16383.00
477.50	16383.00
477.54	16383.00
477.57	16383.00
477.60	16383.00
477.64	16383.00
477.67	16383.00
477.70	16383.00
477.74	16383.00
477.77	16383.00
477.81	16383.00
477.84	16383.00
477.87	16383.00
477.91	16383.00
477.94	16383.00
477.97	16383.00
478.01	16383.00
478.04	16383.00
478.08	16383.00
478.11	16383.00
478.14	16383.00
478.18	16383.00
478.21	16383.00
478.24	16383.00
478.28	16383.00
478.31	16383.00
478.34	16383.00
478.38	16383.00
478.41	16383.00
478.44	16383.00
478.48	16383.00
478.51	16383.00
478.55	16383.00
478.58	16383.00
478.61	16383.00
478.65	16383.00
478.68	16383.00
478.71	16383.00
478.75	16383.00
478.78	16383.00
478.81	16383.00
478.85	16383.00
478.88	16383.00
478.92	16383.00
478.95	16383.00
478.98	16383.00
479.02	16383.00
479.05	16383.00
479.08	16383.00
479.12	16383.00
479.15	16383.00
479.18	16383.00
479.22	16383.00
479.25	16383.00
479.28	16383.00
479.32	16383.00
479.35	16383.00
479.38	16383.00
479.42	16383.00
479.45	16383.00
479.49	16383.00
479.52	16383.00
479.55	16383.00
479.59	16383.00
479.62	16383.00
479.65	16383.00
479.69	16383.00
479.72	16383.00
479.75	16383.00
479.79	16383.00
479.82	16383.00
479.85	16383.00
479.89	16383.00
479.92	16383.00
479.95	16383.00
479.99	16383.00
480.02	16383.00
480.06	16383.00
480.09	16383.00
480.12	16383.00
480.16	16383.00
480.19	16383.00
480.22	16383.00
480.26	16383.00
480.29	16383.00
480.32	16383.00
480.36	16383.00
480.39	16383.00
480.42	16383.00
480.46	16383.00
480.49	16383.00
480.52	16383.00
480.56	16383.00
480.59	16383.00
480.62	16383.00
480.66	16383.00
480.69	16383.00
480.72	16383.00
480.76	16383.00
480.79	16383.00
480.82	16383.00
480.86	16383.00
480.89	16383.00
480.93	16383.00
480.96	16383.00
480.99	16383.00
481.03	16383.00
481.06	16383.00
481.09	16383.00
481.13	16383.00
481.16	16383.00
481.19	16383.00
481.23	16383.00
481.26	16383.00
481.29	16383.00
481.33	16383.00
481.36	16383.00
481.39	16383.00
481.43	16383.00
481.46	16383.00
481.49	16383.00
481.53	16383.00
481.56	16383.00
481.59	16383.00
481.63	16383.00
481.66	16383.00
481.69	16383.00
481.73	16383.00
481.76	16383.00
481.79	16383.00
481.83	16383.00
481.86	16383.00
481.89	16383.00
481.93	16383.00
481.96	16383.00
481.99	16383.00
482.03	16383.00
482.06	16383.00
482.09	16383.00
482.13	16383.00
482.16	16383.00
482.19	16383.00
482.23	16383.00
482.26	16383.00
482.29	16383.00
482.33	16383.00
482.36	16383.00
482.39	16383.00
482.43	16383.00
482.46	16383.00
482.49	16383.00
482.53	16383.00
482.56	16383.00
482.59	16383.00
482.63	16383.00
482.66	16383.00
482.69	16383.00
482.73	16383.00
482.76	16383.00
482.79	16383.00
482.83	16383.00
482.86	16383.00
482.89	16383.00
482.93	16383.00
482.96	16383.00
482.99	16383.00
483.03	16383.00
483.06	16383.00
483.09	16383.00
483.13	16383.00
483.16	16383.00
483.19	16383.00
483.23	16383.00
483.26	16383.00
483.29	16383.00
483.33	16383.00
483.36	16383.00
483.39	16383.00
483.43	16383.00
483.46	16383.00
483.49	16383.00
483.52	16383.00
483.56	16383.00
483.59	16383.00
483.62	16383.00
483.66	16383.00
483.69	16383.00
483.72	16383.00
483.76	16383.00
483.79	16383.00
483.82	16383.00
483.86	16383.00
483.89	16383.00
483.92	16383.00
483.96	16383.00
483.99	16383.00
484.02	16383.00
484.06	16383.00
484.09	16383.00
484.12	16383.00
484.16	16383.00
484.19	16383.00
484.22	16383.00
484.26	16383.00
484.29	16383.00
484.32	16383.00
484.35	16383.00
484.39	16383.00
484.42	16383.00
484.45	16383.00
484.49	16383.00
484.52	16383.00
484.55	16383.00
484.59	16383.00
484.62	16383.00
484.65	16383.00
484.69	16383.00
484.72	16383.00
484.75	16383.00
484.79	16383.00
484.82	16383.00
484.85	16383.00
484.89	16383.00
484.92	16383.00
484.95	16383.00
484.98	16383.00
485.02	16383.00
485.05	16383.00
485.08	16383.00
485.12	16383.00
485.15	16383.00
485.18	16383.00
485.22	16383.00
485.25	16383.00
485.28	16383.00
485.32	16383.00
485.35	16383.00
485.38	16383.00
485.42	16383.00
485.45	16383.00
485.48	16383.00
485.49	16383.00
>>>>>End Processed Spectral Data<<<<<